Wavelength (nm),Intensity
394.27,1013.0000
394.56,1009.0000
394.85,1018.0000
395.14,1010.6000
395.44,1002.8000
395.73,1015.0000
396.02,987.4000
396.31,1001.8000
396.61,1008.6000
396.90,994.6000
397.19,1005.4000
397.48,1009.0000
397.77,995.0000
398.06,1003.6000
398.36,1004.6000
398.65,1000.0000
398.94,989.8000
399.23,1003.4000
399.52,996.8000
399.82,1008.4000
400.11,1005.4000
400.40,1011.0000
400.69,1004.6000
400.98,989.4000
401.27,1023.6000
401.57,982.6000
401.86,1005.2000
402.15,993.6000
402.44,996.6000
402.73,996.8000
403.02,1010.2000
403.32,999.8000
403.61,1014.2000
403.90,997.4000
404.19,997.8000
404.48,1017.2000
404.77,1009.0000
405.06,1017.6000
405.36,1016.0000
405.65,1005.8000
405.94,986.2000
406.23,1016.8000
406.52,1017.8000
406.81,1016.4000
407.10,1008.0000
407.40,997.0000
407.69,1016.8000
407.98,1009.4000
408.27,1006.4000
408.56,993.0000
408.85,1033.8000
409.14,989.0000
409.43,1014.8000
409.72,998.2000
410.02,1043.6000
410.31,1005.8000
410.60,1004.2000
410.89,1011.2000
411.18,1000.2000
411.47,1009.6000
411.76,1006.6000
412.05,1000.2000
412.34,1004.0000
412.63,986.2000
412.93,1049.8000
413.22,1013.2000
413.51,1000.6000
413.80,1013.8000
414.09,985.4000
414.38,997.6000
414.67,1012.0000
414.96,983.6000
415.25,1027.0000
415.54,1004.0000
415.83,988.0000
416.12,994.6000
416.41,978.8000
416.70,1012.0000
417.00,1011.4000
417.29,1006.6000
417.58,999.8000
417.87,996.8000
418.16,1025.6000
418.45,996.6000
418.74,1007.4000
419.03,1003.0000
419.32,1024.6000
419.61,1010.2000
419.90,1009.4000
420.19,1016.6000
420.48,1002.4000
420.77,976.8000
421.06,992.8000
421.35,1002.4000
421.64,1002.4000
421.93,993.0000
422.22,989.8000
422.51,1029.4000
422.80,1016.2000
423.09,987.0000
423.38,1030.6000
423.67,1001.2000
423.96,994.8000
424.25,996.8000
424.54,1000.4000
424.83,977.0000
425.12,985.6000
425.41,1002.0000
425.70,1059.4000
425.99,1015.4000
426.28,997.4000
426.57,1004.2000
426.86,992.4000
427.15,1008.8000
427.44,1032.4000
427.73,1019.4000
428.02,1002.6000
428.31,1009.2000
428.60,1026.8000
428.89,1017.2000
429.18,1005.0000
429.47,1007.4000
429.76,989.4000
430.05,987.2000
430.34,1012.8000
430.63,986.8000
430.92,1021.8000
431.21,1010.0000
431.50,992.6000
431.79,998.2000
432.08,995.8000
432.37,977.2000
432.66,1000.4000
432.94,1002.2000
433.23,1000.0000
433.52,1018.8000
433.81,1014.8000
434.10,1055.6000
434.39,1000.4000
434.68,1028.6000
434.97,981.2000
435.26,1000.0000
435.55,1002.8000
435.84,996.4000
436.13,1000.4000
436.42,1009.6000
436.71,996.4000
436.99,994.0000
437.28,996.4000
437.57,1003.0000
437.86,994.0000
438.15,1012.2000
438.44,986.0000
438.73,1006.8000
439.02,1013.2000
439.31,1023.4000
439.60,993.8000
439.88,991.0000
440.17,998.4000
440.46,1003.8000
440.75,988.6000
441.04,974.4000
441.33,1019.0000
441.62,1008.2000
441.91,989.2000
442.20,1001.0000
442.48,1009.8000
442.77,988.6000
443.06,1007.8000
443.35,982.2000
443.64,1001.8000
443.93,993.2000
444.22,996.6000
444.50,1012.0000
444.79,1013.2000
445.08,998.2000
445.37,1005.6000
445.66,988.4000
445.95,980.0000
446.24,983.6000
446.52,996.4000
446.81,1013.8000
447.10,989.8000
447.39,1009.4000
447.68,997.4000
447.97,969.4000
448.25,1018.2000
448.54,1012.2000
448.83,1027.0000
449.12,1030.4000
449.41,998.2000
449.69,1000.2000
449.98,999.0000
450.27,995.6000
450.56,991.8000
450.85,998.8000
451.14,979.8000
451.42,999.4000
451.71,1004.6000
452.00,989.8000
452.29,1000.0000
452.58,1004.6000
452.86,992.2000
453.15,1019.2000
453.44,998.0000
453.73,1008.8000
454.01,992.2000
454.30,1056.2000
454.59,978.6000
454.88,991.0000
455.17,979.4000
455.45,1000.8000
455.74,1020.6000
456.03,1008.2000
456.32,990.4000
456.60,974.0000
456.89,997.8000
457.18,985.6000
457.47,987.6000
457.76,989.0000
458.04,986.0000
458.33,996.2000
458.62,990.8000
458.91,977.0000
459.19,976.2000
459.48,983.8000
459.77,983.2000
460.06,996.4000
460.34,994.0000
460.63,999.2000
460.92,991.6000
461.20,993.8000
461.49,992.6000
461.78,990.8000
462.07,996.6000
462.35,1007.0000
462.64,999.8000
462.93,1007.2000
463.22,1011.8000
463.50,1005.4000
463.79,991.8000
464.08,1009.0000
464.36,1000.6000
464.65,1000.8000
464.94,1003.2000
465.22,997.2000
465.51,988.2000
465.80,1032.8000
466.09,986.0000
466.37,1012.8000
466.66,1012.4000
466.95,993.8000
467.23,994.2000
467.52,1000.0000
467.81,1024.8000
468.09,997.4000
468.38,994.2000
468.67,1027.0000
468.95,986.0000
469.24,981.6000
469.53,1012.6000
469.81,1002.2000
470.10,1002.8000
470.39,1003.0000
470.67,988.6000
470.96,1003.6000
471.25,994.0000
471.53,1019.2000
471.82,1004.8000
472.11,1003.0000
472.39,985.4000
472.68,998.4000
472.97,981.8000
473.25,1004.8000
473.54,996.0000
473.82,993.8000
474.11,990.0000
474.40,1007.0000
474.68,1028.4000
474.97,1027.2000
475.26,1003.6000
475.54,979.2000
475.83,1001.0000
476.11,994.4000
476.40,1012.6000
476.69,1006.2000
476.97,1011.0000
477.26,1000.6000
477.55,1020.8000
477.83,984.4000
478.12,1000.6000
478.40,997.2000
478.69,996.0000
478.98,995.4000
479.26,987.4000
479.55,1000.0000
479.83,991.4000
480.12,996.6000
480.40,996.2000
480.69,978.0000
480.98,990.0000
481.26,1017.8000
481.55,990.0000
481.83,1000.2000
482.12,996.8000
482.41,991.4000
482.69,980.8000
482.98,1010.2000
483.26,1020.0000
483.55,993.0000
483.83,1002.0000
484.12,992.0000
484.40,991.8000
484.69,977.0000
484.98,1001.8000
485.26,992.6000
485.55,989.6000
485.83,977.4000
486.12,1003.8000
486.40,994.6000
486.69,990.8000
486.97,999.6000
487.26,1004.0000
487.54,991.0000
487.83,1000.2000
488.11,990.0000
488.40,1023.2000
488.68,1018.0000
488.97,1001.6000
489.26,1004.4000
489.54,1010.8000
489.83,996.4000
490.11,998.4000
490.40,1004.6000
490.68,997.8000
490.97,980.0000
491.25,1002.8000
491.54,978.6000
491.82,1016.4000
492.11,994.6000
492.39,1007.0000
492.68,988.4000
492.96,1018.4000
493.24,982.8000
493.53,985.6000
493.81,1021.2000
494.10,988.8000
494.38,987.4000
494.67,990.4000
494.95,1023.2000
495.24,987.0000
495.52,1018.6000
495.81,1004.6000
496.09,1005.4000
496.38,973.8000
496.66,1004.0000
496.95,1004.0000
497.23,999.0000
497.51,982.8000
497.80,1000.2000
498.08,995.8000
498.37,984.4000
498.65,1001.4000
498.94,1020.2000
499.22,992.8000
499.51,996.0000
499.79,993.0000
500.07,985.0000
500.36,1016.2000
500.64,1013.2000
500.93,979.8000
501.21,1022.2000
501.50,984.6000
501.78,1002.0000
502.06,986.0000
502.35,987.4000
502.63,978.2000
502.92,995.2000
503.20,1011.2000
503.48,1024.6000
503.77,1005.0000
504.05,1002.0000
504.34,976.6000
504.62,1013.4000
504.90,1005.4000
505.19,1012.2000
505.47,991.0000
505.76,993.6000
506.04,992.6000
506.32,1016.4000
506.61,984.4000
506.89,1002.8000
507.17,995.4000
507.46,1003.4000
507.74,1019.6000
508.03,998.4000
508.31,1002.0000
508.59,975.0000
508.88,984.0000
509.16,999.4000
509.44,1008.0000
509.73,1013.0000
510.01,990.8000
510.29,1001.0000
510.58,983.4000
510.86,1001.4000
511.14,1022.4000
511.43,1005.0000
511.71,1001.0000
511.99,998.4000
512.28,985.4000
512.56,980.4000
512.84,984.6000
513.13,979.6000
513.41,992.4000
513.69,996.8000
513.98,975.4000
514.26,1009.6000
514.54,986.0000
514.83,998.0000
515.11,994.6000
515.39,1011.2000
515.68,1003.2000
515.96,996.0000
516.24,993.2000
516.53,997.6000
516.81,1017.8000
517.09,980.0000
517.37,996.4000
517.66,989.4000
517.94,1001.0000
518.22,993.0000
518.51,991.8000
518.79,998.0000
519.07,984.8000
519.35,992.0000
519.64,1014.2000
519.92,1008.0000
520.20,1012.8000
520.48,1008.6000
520.77,994.2000
521.05,982.0000
521.33,974.0000
521.62,987.0000
521.90,992.6000
522.18,992.0000
522.46,985.0000
522.75,990.2000
523.03,1003.2000
523.31,988.2000
523.59,1029.0000
523.88,1009.4000
524.16,992.4000
524.44,1018.0000
524.72,1011.4000
525.00,1011.2000
525.29,999.6000
525.57,972.8000
525.85,990.0000
526.13,979.4000
526.42,975.4000
526.70,997.4000
526.98,985.6000
527.26,986.6000
527.54,990.8000
527.83,993.0000
528.11,987.6000
528.39,1001.0000
528.67,1003.8000
528.95,1003.4000
529.24,984.2000
529.52,1004.6000
529.80,999.0000
530.08,1002.4000
530.36,1000.0000
530.65,1009.6000
530.93,998.2000
531.21,988.2000
531.49,992.6000
531.77,1004.4000
532.05,988.2000
532.34,1008.4000
532.62,990.0000
532.90,1007.6000
533.18,995.6000
533.46,1008.6000
533.74,998.8000
534.03,978.4000
534.31,997.6000
534.59,986.4000
534.87,996.2000
535.15,1004.8000
535.43,1006.6000
535.71,995.8000
536.00,1007.4000
536.28,985.2000
536.56,996.8000
536.84,997.2000
537.12,985.2000
537.40,1002.0000
537.68,1006.4000
537.97,1002.0000
538.25,1001.4000
538.53,1004.4000
538.81,1005.4000
539.09,980.0000
539.37,1002.6000
539.65,984.0000
539.93,997.4000
540.21,996.6000
540.50,976.8000
540.78,1007.0000
541.06,992.0000
541.34,998.6000
541.62,1006.0000
541.90,1015.4000
542.18,989.2000
542.46,1010.0000
542.74,995.2000
543.02,1000.0000
543.30,992.6000
543.58,1004.2000
543.87,1011.4000
544.15,991.0000
544.43,1009.6000
544.71,1009.0000
544.99,1009.2000
545.27,1000.8000
545.55,982.4000
545.83,992.8000
546.11,1006.4000
546.39,994.2000
546.67,1007.0000
546.95,978.2000
547.23,985.6000
547.51,1001.2000
547.79,1001.6000
548.07,1001.2000
548.35,993.2000
548.63,968.2000
548.91,1012.4000
549.20,988.6000
549.48,1036.0000
549.76,983.6000
550.04,978.0000
550.32,998.6000
550.60,985.6000
550.88,966.6000
551.16,1004.4000
551.44,1006.6000
551.72,981.2000
552.00,987.0000
552.28,995.8000
552.56,1016.0000
552.84,1013.6000
553.12,1000.0000
553.40,999.6000
553.68,1001.6000
553.96,993.2000
554.24,988.6000
554.52,1007.4000
554.80,993.2000
555.08,1013.8000
555.36,982.4000
555.64,1009.2000
555.92,992.6000
556.19,1002.8000
556.47,987.6000
556.75,995.0000
557.03,994.4000
557.31,1021.6000
557.59,1005.6000
557.87,982.8000
558.15,1002.8000
558.43,981.4000
558.71,995.8000
558.99,994.0000
559.27,998.8000
559.55,984.2000
559.83,983.8000
560.11,1001.4000
560.39,988.8000
560.67,997.6000
560.95,997.4000
561.23,1005.0000
561.50,998.0000
561.78,991.4000
562.06,986.2000
562.34,992.6000
562.62,992.2000
562.90,1007.8000
563.18,1001.4000
563.46,981.0000
563.74,998.4000
564.02,1014.2000
564.30,999.8000
564.57,993.6000
564.85,978.4000
565.13,1017.0000
565.41,987.6000
565.69,1001.4000
565.97,1015.6000
566.25,976.8000
566.53,978.4000
566.81,1016.4000
567.08,1007.4000
567.36,993.2000
567.64,993.0000
567.92,1000.6000
568.20,987.0000
568.48,986.0000
568.76,1011.8000
569.04,997.8000
569.31,1009.0000
569.59,1010.6000
569.87,996.8000
570.15,995.0000
570.43,999.8000
570.71,1010.2000
570.99,988.8000
571.26,1000.6000
571.54,1006.6000
571.82,981.2000
572.10,992.8000
572.38,991.8000
572.66,1014.8000
572.93,991.0000
573.21,991.2000
573.49,990.6000
573.77,1025.2000
574.05,989.4000
574.32,984.8000
574.60,994.8000
574.88,992.2000
575.16,1020.2000
575.44,1006.0000
575.71,994.2000
575.99,1053.2000
576.27,1018.6000
576.55,989.0000
576.83,1019.2000
577.10,1001.2000
577.38,1003.0000
577.66,992.2000
577.94,1005.4000
578.22,978.4000
578.49,1008.6000
578.77,992.6000
579.05,1019.2000
579.33,1011.6000
579.60,1000.8000
579.88,996.0000
580.16,1000.4000
580.44,1003.2000
580.72,986.6000
580.99,1002.6000
581.27,986.4000
581.55,989.4000
581.83,989.4000
582.10,996.4000
582.38,999.6000
582.66,1009.8000
582.94,997.4000
583.21,1000.4000
583.49,1006.6000
583.77,993.2000
584.04,1007.2000
584.32,1008.8000
584.60,1001.0000
584.88,987.8000
585.15,1012.6000
585.43,985.2000
585.71,991.2000
585.98,979.8000
586.26,981.0000
586.54,1005.0000
586.82,992.8000
587.09,989.6000
587.37,1004.6000
587.65,978.2000
587.92,997.0000
588.20,1009.8000
588.48,1034.0000
588.75,981.0000
589.03,983.6000
589.31,996.2000
589.59,991.8000
589.86,1024.8000
590.14,1004.6000
590.42,1013.2000
590.69,995.2000
590.97,989.2000
591.25,982.4000
591.52,984.8000
591.80,1009.2000
592.08,994.6000
592.35,996.8000
592.63,1008.4000
592.91,1010.0000
593.18,996.0000
593.46,989.4000
593.73,992.4000
594.01,1006.0000
594.29,1025.4000
594.56,995.2000
594.84,1005.4000
595.12,1007.6000
595.39,986.4000
595.67,993.4000
595.95,999.4000
596.22,996.6000
596.50,988.0000
596.77,985.0000
597.05,1024.0000
597.33,1004.2000
597.60,994.6000
597.88,1007.4000
598.15,1007.6000
598.43,983.4000
598.71,987.8000
598.98,1057.2000
599.26,1020.2000
599.53,992.4000
599.81,1009.4000
600.09,987.0000
600.36,979.8000
600.64,1001.4000
600.91,980.8000
601.19,991.2000
601.47,993.8000
601.74,983.8000
602.02,994.8000
602.29,990.0000
602.57,1007.6000
602.84,990.2000
603.12,989.2000
603.40,993.6000
603.67,989.4000
603.95,1002.0000
604.22,1032.8000
604.50,1003.0000
604.77,993.8000
605.05,985.8000
605.32,999.8000
605.60,1004.4000
605.87,994.8000
606.15,993.8000
606.42,991.6000
606.70,997.0000
606.98,998.4000
607.25,997.6000
607.53,1015.0000
607.80,999.2000
608.08,985.4000
608.35,987.2000
608.63,985.2000
608.90,1011.6000
609.18,998.2000
609.45,988.2000
609.73,1006.2000
610.00,1025.8000
610.28,993.4000
610.55,997.4000
610.83,978.4000
611.10,992.8000
611.38,998.2000
611.65,999.6000
611.93,990.0000
612.20,1004.2000
612.48,969.4000
612.75,1004.8000
613.03,987.6000
613.30,989.0000
613.57,1003.4000
613.85,987.8000
614.12,1022.8000
614.40,981.2000
614.67,990.2000
614.95,1010.4000
615.22,988.8000
615.50,982.8000
615.77,1021.2000
616.05,995.4000
616.32,1007.8000
616.59,1002.6000
616.87,995.6000
617.14,1004.8000
617.42,1003.8000
617.69,1002.2000
617.97,977.8000
618.24,988.2000
618.51,978.0000
618.79,987.8000
619.06,985.6000
619.34,1000.6000
619.61,973.2000
619.88,1028.8000
620.16,1000.4000
620.43,1006.4000
620.71,987.4000
620.98,983.0000
621.26,997.4000
621.53,996.4000
621.80,998.2000
622.08,996.8000
622.35,992.4000
622.62,1004.8000
622.90,1005.6000
623.17,990.0000
623.45,1010.6000
623.72,1006.0000
623.99,994.8000
624.27,1001.8000
624.54,1015.2000
624.81,1025.4000
625.09,1003.6000
625.36,1002.8000
625.64,1023.2000
625.91,1001.4000
626.18,991.6000
626.46,986.6000
626.73,1041.2000
627.00,1020.4000
627.28,984.4000
627.55,988.8000
627.82,996.6000
628.10,998.0000
628.37,981.4000
628.64,989.6000
628.92,970.6000
629.19,983.4000
629.46,990.8000
629.74,983.0000
630.01,992.6000
630.28,991.8000
630.56,989.0000
630.83,977.2000
631.10,991.2000
631.37,994.2000
631.65,984.4000
631.92,996.4000
632.19,994.6000
632.47,1016.0000
632.74,994.8000
633.01,1007.8000
633.28,994.0000
633.56,994.2000
633.83,973.2000
634.10,989.4000
634.38,988.0000
634.65,1004.8000
634.92,996.4000
635.19,1021.8000
635.47,1003.8000
635.74,983.8000
636.01,970.6000
636.28,983.6000
636.56,999.8000
636.83,984.0000
637.10,1013.6000
637.37,1007.4000
637.65,993.8000
637.92,980.2000
638.19,976.6000
638.46,1016.2000
638.74,990.2000
639.01,1011.0000
639.28,965.8000
639.55,1012.4000
639.83,977.2000
640.10,994.0000
640.37,1006.8000
640.64,985.8000
640.91,1007.2000
641.19,988.0000
641.46,994.8000
641.73,1018.8000
642.00,992.6000
642.28,1006.0000
642.55,996.2000
642.82,986.8000
643.09,1015.4000
643.36,1007.4000
643.63,997.2000
643.91,1000.8000
644.18,995.4000
644.45,1000.6000
644.72,1012.2000
644.99,1000.6000
645.27,971.0000
645.54,997.6000
645.81,1047.2000
646.08,1009.2000
646.35,981.8000
646.62,984.4000
646.90,997.4000
647.17,1019.4000
647.44,995.6000
647.71,1008.6000
647.98,976.4000
648.25,997.0000
648.52,966.8000
648.80,985.6000
649.07,985.2000
649.34,992.6000
649.61,981.4000
649.88,1019.6000
650.15,1008.6000
650.42,1003.6000
650.69,994.4000
650.97,1002.2000
651.24,1006.6000
651.51,1002.0000
651.78,1013.6000
652.05,989.6000
652.32,993.2000
652.59,1025.8000
652.86,993.6000
653.13,979.8000
653.41,1000.6000
653.68,1005.0000
653.95,1005.6000
654.22,998.0000
654.49,1004.8000
654.76,979.8000
655.03,1009.6000
655.30,990.4000
655.57,978.8000
655.84,1003.0000
656.11,1011.4000
656.38,993.2000
656.66,986.2000
656.93,983.4000
657.20,990.8000
657.47,1010.6000
657.74,999.2000
658.01,1018.0000
658.28,983.8000
658.55,994.4000
658.82,1002.2000
659.09,1011.6000
659.36,1007.0000
659.63,992.0000
659.90,1001.2000
660.17,1008.0000
660.44,991.2000
660.71,994.8000
660.98,1001.0000
661.25,1001.0000
661.52,985.2000
661.79,987.2000
662.06,1000.4000
662.33,983.0000
662.60,972.2000
662.87,1007.8000
663.14,987.0000
663.41,994.6000
663.68,974.0000
663.95,983.8000
664.22,993.8000
664.49,1007.4000
664.76,980.4000
665.03,978.0000
665.30,988.0000
665.57,991.2000
665.84,988.2000
666.11,984.8000
666.38,975.8000
666.65,994.2000
666.92,1030.4000
667.19,986.8000
667.46,1001.4000
667.73,1006.8000
668.00,989.6000
668.27,999.6000
668.54,1010.4000
668.81,988.4000
669.08,1009.4000
669.35,994.6000
669.62,1029.2000
669.89,985.4000
670.16,1013.8000
670.42,985.6000
670.69,994.8000
670.96,1006.0000
671.23,995.2000
671.50,977.0000
671.77,992.4000
672.04,989.0000
672.31,983.6000
672.58,982.6000
672.85,987.8000
673.12,995.2000
673.39,991.0000
673.65,987.8000
673.92,1016.2000
674.19,991.2000
674.46,999.4000
674.73,999.4000
675.00,975.6000
675.27,999.2000
675.54,1001.4000
675.81,997.4000
676.07,1003.0000
676.34,1023.4000
676.61,1010.8000
676.88,982.8000
677.15,997.4000
677.42,1000.8000
677.69,988.2000
677.96,1004.8000
678.22,996.8000
678.49,992.0000
678.76,991.0000
679.03,983.0000
679.30,987.0000
679.57,973.0000
679.83,1006.8000
680.10,994.4000
680.37,1006.2000
680.64,1011.0000
680.91,980.6000
681.18,1006.8000
681.44,997.4000
681.71,990.8000
681.98,1001.6000
682.25,998.6000
682.52,997.2000
682.79,1001.6000
683.05,1011.0000
683.32,1000.2000
683.59,998.4000
683.86,999.6000
684.13,1009.0000
684.39,983.6000
684.66,989.6000
684.93,1008.0000
685.20,985.2000
685.47,990.6000
685.73,1007.6000
686.00,981.6000
686.27,1005.8000
686.54,983.2000
686.80,1006.4000
687.07,1008.8000
687.34,970.6000
687.61,986.4000
687.88,983.0000
688.14,1004.6000
688.41,1002.2000
688.68,973.0000
688.95,989.8000
689.21,988.0000
689.48,1019.0000
689.75,996.0000
690.02,977.0000
690.28,977.8000
690.55,993.8000
690.82,969.6000
691.08,997.8000
691.35,989.6000
691.62,1009.4000
691.89,998.2000
692.15,1004.2000
692.42,997.0000
692.69,970.6000
692.95,987.6000
693.22,1002.4000
693.49,989.8000
693.76,988.4000
694.02,995.4000
694.29,997.6000
694.56,989.4000
694.82,1007.8000
695.09,965.6000
695.36,987.4000
695.62,985.6000
695.89,1012.8000
696.16,983.0000
696.43,1010.4000
696.69,1024.4000
696.96,1030.2000
697.23,988.4000
697.49,1003.6000
697.76,1013.0000
698.03,989.6000
698.29,982.6000
698.56,1011.0000
698.82,986.4000
699.09,1014.8000
699.36,1003.4000
699.62,997.0000
699.89,1011.2000
700.16,974.0000
700.42,1006.4000
700.69,1007.4000
700.96,995.0000
701.22,999.0000
701.49,983.6000
701.75,1007.8000
702.02,982.6000
702.29,991.4000
702.55,980.6000
702.82,1006.2000
703.09,1003.4000
703.35,1007.4000
703.62,1004.6000
703.88,1017.0000
704.15,985.6000
704.42,1003.4000
704.68,981.4000
704.95,1018.8000
705.21,995.0000
705.48,1014.4000
705.75,984.6000
706.01,1009.2000
706.28,986.8000
706.54,985.6000
706.81,998.8000
707.07,993.6000
707.34,983.2000
707.61,997.8000
707.87,999.8000
708.14,995.6000
708.40,993.8000
708.67,1016.2000
708.93,1006.6000
709.20,991.0000
709.46,998.2000
709.73,995.8000
709.99,1002.0000
710.26,999.0000
710.53,979.8000
710.79,971.4000
711.06,993.4000
711.32,1156.0000
711.59,1020.8000
711.85,1025.2000
712.12,995.8000
712.38,986.4000
712.65,995.4000
712.91,1002.2000
713.18,1007.8000
713.44,1002.0000
713.71,982.8000
713.97,1003.4000
714.24,993.8000
714.50,990.6000
714.77,1002.0000
715.03,992.2000
715.30,1005.0000
715.56,1000.2000
715.83,990.8000
716.09,1015.4000
716.36,1035.4000
716.62,1007.2000
716.89,973.0000
717.15,1012.4000
717.42,981.6000
717.68,974.8000
717.94,978.8000
718.21,1003.0000
718.47,1012.0000
718.74,985.8000
719.00,1012.4000
719.27,1000.4000
719.53,985.2000
719.80,997.4000
720.06,1002.4000
720.32,1018.0000
720.59,1004.4000
720.85,1001.0000
721.12,977.8000
721.38,1006.4000
721.65,981.2000
721.91,993.8000
722.17,980.2000
722.44,1003.8000
722.70,999.4000
722.97,996.8000
723.23,999.0000
723.49,997.6000
723.76,991.0000
724.02,1026.0000
724.29,1005.0000
724.55,996.0000
724.81,1021.6000
725.08,1002.6000
725.34,1008.0000
725.61,984.4000
725.87,1013.0000
726.13,993.4000
726.40,1005.2000
726.66,986.8000
726.92,985.6000
727.19,999.4000
727.45,992.8000
727.71,1000.2000
727.98,979.6000
728.24,1004.8000
728.51,1003.8000
728.77,984.4000
729.03,1010.6000
729.30,1011.2000
729.56,990.0000
729.82,1020.0000
730.09,1002.8000
730.35,987.6000
730.61,1003.4000
730.88,993.4000
731.14,989.4000
731.40,999.0000
731.67,987.8000
731.93,997.2000
732.19,990.2000
