Wavelength (nm),Intensity
394.27,1011.4000
394.56,1009.6000
394.85,1006.2000
395.14,1002.8000
395.44,1002.2000
395.73,1003.6000
396.02,979.2000
396.31,997.2000
396.61,1008.8000
396.90,986.4000
397.19,1016.6000
397.48,1007.4000
397.77,985.6000
398.06,1003.2000
398.36,1010.0000
398.65,1002.4000
398.94,1000.2000
399.23,987.6000
399.52,1003.2000
399.82,1011.0000
400.11,994.2000
400.40,1017.2000
400.69,992.4000
400.98,997.0000
401.27,1004.8000
401.57,987.2000
401.86,992.8000
402.15,998.8000
402.44,997.0000
402.73,990.8000
403.02,1015.8000
403.32,991.0000
403.61,1000.0000
403.90,986.4000
404.19,1010.2000
404.48,1005.2000
404.77,1001.2000
405.06,1007.0000
405.36,1024.8000
405.65,995.4000
405.94,976.2000
406.23,1009.8000
406.52,1025.2000
406.81,1024.6000
407.10,1011.6000
407.40,1005.4000
407.69,991.8000
407.98,1014.6000
408.27,1009.6000
408.56,986.2000
408.85,1031.6000
409.14,989.0000
409.43,1015.2000
409.72,984.2000
410.02,1033.0000
410.31,1000.8000
410.60,992.6000
410.89,1012.2000
411.18,1001.8000
411.47,995.8000
411.76,999.0000
412.05,996.4000
412.34,993.4000
412.63,991.6000
412.93,1048.4000
413.22,1019.4000
413.51,990.8000
413.80,1010.8000
414.09,994.2000
414.38,996.4000
414.67,1008.8000
414.96,982.2000
415.25,1026.0000
415.54,1014.4000
415.83,975.6000
416.12,986.4000
416.41,977.4000
416.70,1005.0000
417.00,1010.2000
417.29,1001.4000
417.58,1003.6000
417.87,1002.6000
418.16,1021.0000
418.45,988.0000
418.74,993.8000
419.03,1000.8000
419.32,1023.8000
419.61,1011.8000
419.90,1018.6000
420.19,1017.8000
420.48,995.8000
420.77,967.8000
421.06,986.6000
421.35,1000.6000
421.64,995.8000
421.93,984.6000
422.22,1004.4000
422.51,1024.2000
422.80,1007.2000
423.09,989.2000
423.38,1032.0000
423.67,1009.4000
423.96,982.8000
424.25,987.8000
424.54,991.8000
424.83,969.0000
425.12,992.6000
425.41,1002.4000
425.70,1053.6000
425.99,1016.2000
426.28,1004.8000
426.57,997.8000
426.86,1011.8000
427.15,1015.0000
427.44,1025.8000
427.73,1015.4000
428.02,1003.4000
428.31,1007.8000
428.60,1021.6000
428.89,1013.8000
429.18,1008.8000
429.47,1010.6000
429.76,996.4000
430.05,987.2000
430.34,1017.4000
430.63,995.6000
430.92,1028.6000
431.21,1023.2000
431.50,989.0000
431.79,993.6000
432.08,994.0000
432.37,985.4000
432.66,1005.0000
432.94,1001.6000
433.23,1009.0000
433.52,1016.4000
433.81,1009.0000
434.10,1056.2000
434.39,1005.8000
434.68,1017.4000
434.97,994.8000
435.26,995.8000
435.55,1003.2000
435.84,1004.8000
436.13,993.2000
436.42,1016.6000
436.71,996.2000
436.99,993.8000
437.28,986.8000
437.57,1004.4000
437.86,994.8000
438.15,1012.0000
438.44,999.0000
438.73,1003.0000
439.02,1012.8000
439.31,1012.6000
439.60,992.6000
439.88,1002.8000
440.17,998.8000
440.46,1008.6000
440.75,991.2000
441.04,973.8000
441.33,1028.8000
441.62,1001.0000
441.91,986.4000
442.20,997.0000
442.48,991.2000
442.77,977.2000
443.06,1006.4000
443.35,983.2000
443.64,998.8000
443.93,982.4000
444.22,991.6000
444.50,1001.0000
444.79,1001.2000
445.08,997.6000
445.37,1005.8000
445.66,984.6000
445.95,980.6000
446.24,985.0000
446.52,998.8000
446.81,1025.4000
447.10,976.6000
447.39,1020.0000
447.68,988.0000
447.97,978.0000
448.25,1008.8000
448.54,1019.2000
448.83,1008.8000
449.12,1025.8000
449.41,1003.2000
449.69,1007.4000
449.98,991.8000
450.27,996.2000
450.56,995.0000
450.85,995.6000
451.14,973.4000
451.42,986.2000
451.71,996.6000
452.00,995.2000
452.29,1004.0000
452.58,992.6000
452.86,992.4000
453.15,990.6000
453.44,1001.0000
453.73,1006.2000
454.01,988.4000
454.30,1044.8000
454.59,986.6000
454.88,986.2000
455.17,980.2000
455.45,993.2000
455.74,1020.6000
456.03,996.0000
456.32,991.0000
456.60,975.2000
456.89,998.2000
457.18,987.2000
457.47,977.4000
457.76,977.0000
458.04,992.0000
458.33,992.8000
458.62,991.2000
458.91,968.2000
459.19,983.4000
459.48,988.8000
459.77,982.6000
460.06,994.8000
460.34,1001.6000
460.63,994.4000
460.92,991.4000
461.20,982.8000
461.49,996.8000
461.78,974.0000
462.07,980.2000
462.35,993.6000
462.64,984.8000
462.93,1011.6000
463.22,1004.0000
463.50,1004.0000
463.79,994.8000
464.08,1012.2000
464.36,1002.6000
464.65,991.6000
464.94,995.2000
465.22,991.6000
465.51,992.0000
465.80,1022.6000
466.09,979.4000
466.37,1019.6000
466.66,1016.6000
466.95,998.0000
467.23,991.2000
467.52,999.8000
467.81,1024.6000
468.09,976.8000
468.38,1004.8000
468.67,1017.8000
468.95,993.4000
469.24,988.0000
469.53,1001.8000
469.81,1011.0000
470.10,983.0000
470.39,1006.8000
470.67,979.6000
470.96,995.0000
471.25,997.6000
471.53,1008.8000
471.82,998.2000
472.11,990.4000
472.39,984.8000
472.68,992.6000
472.97,985.0000
473.25,997.2000
473.54,991.8000
473.82,989.8000
474.11,998.4000
474.40,1002.6000
474.68,1027.2000
474.97,1023.8000
475.26,1010.0000
475.54,983.8000
475.83,993.0000
476.11,990.6000
476.40,1008.8000
476.69,1008.8000
476.97,1004.8000
477.26,1002.6000
477.55,1011.4000
477.83,972.2000
478.12,1007.0000
478.40,995.4000
478.69,1004.2000
478.98,993.8000
479.26,990.4000
479.55,999.8000
479.83,981.4000
480.12,999.8000
480.40,1009.0000
480.69,990.2000
480.98,998.8000
481.26,1011.6000
481.55,989.6000
481.83,1002.4000
482.12,998.6000
482.41,994.0000
482.69,976.4000
482.98,1000.0000
483.26,1024.0000
483.55,983.2000
483.83,1000.4000
484.12,990.8000
484.40,1002.6000
484.69,965.8000
484.98,1003.0000
485.26,991.4000
485.55,990.4000
485.83,967.4000
486.12,994.6000
486.40,986.0000
486.69,993.0000
486.97,1002.6000
487.26,998.4000
487.54,999.2000
487.83,1006.0000
488.11,993.4000
488.40,1020.8000
488.68,1024.2000
488.97,999.4000
489.26,993.2000
489.54,1013.4000
489.83,1007.0000
490.11,999.4000
490.40,1002.2000
490.68,992.0000
490.97,976.0000
491.25,1003.6000
491.54,978.2000
491.82,1010.8000
492.11,1006.6000
492.39,1003.4000
492.68,986.6000
492.96,1012.6000
493.24,984.2000
493.53,991.8000
493.81,1013.6000
494.10,980.0000
494.38,983.6000
494.67,995.8000
494.95,1012.0000
495.24,981.8000
495.52,1002.2000
495.81,1005.8000
496.09,1002.2000
496.38,979.2000
496.66,1011.8000
496.95,1001.2000
497.23,990.4000
497.51,982.0000
497.80,1000.8000
498.08,989.0000
498.37,988.4000
498.65,1004.2000
498.94,1022.4000
499.22,989.0000
499.51,988.6000
499.79,1003.4000
500.07,988.4000
500.36,1007.6000
500.64,1005.6000
500.93,994.4000
501.21,1023.8000
501.50,996.0000
501.78,991.0000
502.06,976.0000
502.35,986.6000
502.63,983.2000
502.92,992.6000
503.20,1009.6000
503.48,1033.4000
503.77,1001.2000
504.05,999.0000
504.34,986.0000
504.62,997.0000
504.90,1005.2000
505.19,1025.2000
505.47,998.0000
505.76,992.2000
506.04,996.4000
506.32,1011.2000
506.61,986.8000
506.89,1008.8000
507.17,999.0000
507.46,994.4000
507.74,1012.6000
508.03,991.6000
508.31,998.0000
508.59,968.4000
508.88,992.0000
509.16,1030.0000
509.44,1006.0000
509.73,1001.2000
510.01,1011.2000
510.29,1003.2000
510.58,985.2000
510.86,1002.4000
511.14,1011.2000
511.43,993.8000
511.71,1004.8000
511.99,996.4000
512.28,998.6000
512.56,986.2000
512.84,992.8000
513.13,983.4000
513.41,994.0000
513.69,999.8000
513.98,978.8000
514.26,1003.2000
514.54,1000.6000
514.83,1003.2000
515.11,1006.6000
515.39,1012.2000
515.68,997.8000
515.96,993.0000
516.24,983.8000
516.53,978.2000
516.81,1030.6000
517.09,969.0000
517.37,1003.0000
517.66,983.2000
517.94,985.8000
518.22,991.8000
518.51,973.8000
518.79,999.6000
519.07,985.8000
519.35,992.6000
519.64,997.2000
519.92,1007.2000
520.20,1009.6000
520.48,1002.6000
520.77,991.0000
521.05,978.6000
521.33,984.8000
521.62,973.8000
521.90,998.4000
522.18,980.2000
522.46,988.2000
522.75,981.4000
523.03,1007.4000
523.31,994.2000
523.59,1017.8000
523.88,1006.8000
524.16,987.4000
524.44,1013.0000
524.72,1017.2000
525.00,1017.6000
525.29,1003.8000
525.57,981.4000
525.85,989.8000
526.13,980.4000
526.42,970.4000
526.70,997.6000
526.98,990.4000
527.26,977.6000
527.54,988.4000
527.83,986.6000
528.11,992.0000
528.39,1003.2000
528.67,1009.0000
528.95,1003.2000
529.24,973.4000
529.52,995.4000
529.80,993.8000
530.08,1014.0000
530.36,996.2000
530.65,1005.4000
530.93,985.0000
531.21,985.2000
531.49,988.6000
531.77,1002.0000
532.05,989.6000
532.34,1004.8000
532.62,986.4000
532.90,1004.0000
533.18,991.4000
533.46,995.4000
533.74,994.6000
534.03,982.0000
534.31,1003.8000
534.59,993.4000
534.87,1001.8000
535.15,1001.8000
535.43,1005.6000
535.71,988.2000
536.00,995.6000
536.28,975.2000
536.56,1001.8000
536.84,995.4000
537.12,986.8000
537.40,996.4000
537.68,992.2000
537.97,994.0000
538.25,987.4000
538.53,1003.6000
538.81,1001.4000
539.09,975.4000
539.37,1002.4000
539.65,991.2000
539.93,1000.0000
540.21,993.6000
540.50,967.4000
540.78,1015.0000
541.06,988.0000
541.34,1017.8000
541.62,994.8000
541.90,1004.2000
542.18,985.2000
542.46,998.2000
542.74,1002.6000
543.02,1003.2000
543.30,991.8000
543.58,1006.0000
543.87,996.2000
544.15,985.8000
544.43,1009.2000
544.71,1012.0000
544.99,1002.8000
545.27,994.2000
545.55,979.8000
545.83,994.4000
546.11,995.2000
546.39,989.4000
546.67,1002.4000
546.95,979.6000
547.23,991.0000
547.51,980.2000
547.79,1003.2000
548.07,1006.8000
548.35,984.4000
548.63,985.6000
548.91,1005.0000
549.20,981.0000
549.48,1022.6000
549.76,984.4000
550.04,992.4000
550.32,992.6000
550.60,991.4000
550.88,971.6000
551.16,1006.4000
551.44,996.0000
551.72,976.0000
552.00,981.8000
552.28,1005.2000
552.56,1017.8000
552.84,1017.4000
553.12,1001.0000
553.40,992.6000
553.68,998.0000
553.96,996.6000
554.24,987.6000
554.52,1008.4000
554.80,995.8000
555.08,999.2000
555.36,977.2000
555.64,1000.8000
555.92,1000.0000
556.19,998.8000
556.47,988.2000
556.75,999.2000
557.03,995.8000
557.31,1010.8000
557.59,1004.4000
557.87,988.6000
558.15,998.4000
558.43,978.2000
558.71,992.0000
558.99,1002.6000
559.27,1007.6000
559.55,988.2000
559.83,988.8000
560.11,995.8000
560.39,984.0000
560.67,997.0000
560.95,1004.2000
561.23,995.8000
561.50,995.0000
561.78,978.8000
562.06,990.6000
562.34,1003.4000
562.62,995.2000
562.90,1011.0000
563.18,1002.0000
563.46,981.6000
563.74,997.8000
564.02,1022.2000
564.30,985.4000
564.57,994.0000
564.85,979.6000
565.13,1012.4000
565.41,985.6000
565.69,1003.2000
565.97,1002.8000
566.25,986.4000
566.53,982.8000
566.81,1023.6000
567.08,1005.8000
567.36,988.4000
567.64,988.6000
567.92,1007.6000
568.20,978.6000
568.48,980.6000
568.76,1015.4000
569.04,995.4000
569.31,1014.0000
569.59,1001.4000
569.87,995.4000
570.15,979.6000
570.43,996.0000
570.71,1005.2000
570.99,992.0000
571.26,998.8000
571.54,1007.0000
571.82,999.8000
572.10,998.2000
572.38,988.6000
572.66,1003.4000
572.93,1003.0000
573.21,985.2000
573.49,1001.0000
573.77,1016.4000
574.05,980.4000
574.32,992.8000
574.60,981.8000
574.88,992.4000
575.16,1023.0000
575.44,989.6000
575.71,993.4000
575.99,1052.2000
576.27,1021.0000
576.55,983.6000
576.83,1016.4000
577.10,1002.2000
577.38,1012.6000
577.66,992.8000
577.94,1002.4000
578.22,983.2000
578.49,1004.6000
578.77,982.6000
579.05,1009.4000
579.33,1003.2000
579.60,1014.6000
579.88,1001.2000
580.16,1001.0000
580.44,1006.4000
580.72,985.2000
580.99,990.2000
581.27,998.0000
581.55,998.8000
581.83,989.2000
582.10,990.2000
582.38,1004.4000
582.66,1006.0000
582.94,1000.4000
583.21,1015.0000
583.49,1006.8000
583.77,995.4000
584.04,995.6000
584.32,1004.8000
584.60,1002.8000
584.88,984.8000
585.15,1012.0000
585.43,975.2000
585.71,984.6000
585.98,976.8000
586.26,980.8000
586.54,1000.4000
586.82,999.0000
587.09,977.8000
587.37,993.0000
587.65,982.2000
587.92,997.2000
588.20,1003.2000
588.48,1029.4000
588.75,987.0000
589.03,980.4000
589.31,990.8000
589.59,978.2000
589.86,1022.4000
590.14,989.6000
590.42,1020.2000
590.69,996.0000
590.97,980.2000
591.25,985.8000
591.52,983.0000
591.80,1019.6000
592.08,1005.4000
592.35,996.6000
592.63,1000.8000
592.91,1003.6000
593.18,984.8000
593.46,994.8000
593.73,997.0000
594.01,1006.4000
594.29,1019.6000
594.56,986.2000
594.84,996.8000
595.12,1013.8000
595.39,1000.4000
595.67,991.0000
595.95,991.4000
596.22,991.8000
596.50,986.6000
596.77,989.8000
597.05,1015.2000
597.33,1011.0000
597.60,992.4000
597.88,998.8000
598.15,996.6000
598.43,990.6000
598.71,1000.2000
598.98,1056.8000
599.26,1028.8000
599.53,989.4000
599.81,1009.6000
600.09,993.0000
600.36,982.2000
600.64,995.4000
600.91,987.4000
601.19,987.2000
601.47,991.6000
601.74,983.6000
602.02,982.6000
602.29,986.0000
602.57,1015.4000
602.84,985.0000
603.12,989.2000
603.40,993.0000
603.67,987.6000
603.95,1009.4000
604.22,1035.4000
604.50,984.4000
604.77,990.8000
605.05,985.6000
605.32,997.2000
605.60,1007.0000
605.87,983.0000
606.15,994.0000
606.42,991.8000
606.70,997.2000
606.98,989.0000
607.25,998.8000
607.53,996.8000
607.80,1005.2000
608.08,998.8000
608.35,995.8000
608.63,980.4000
608.90,1011.0000
609.18,991.4000
609.45,984.2000
609.73,1008.8000
610.00,1025.2000
610.28,1006.6000
610.55,982.2000
610.83,985.6000
611.10,978.0000
611.38,1007.8000
611.65,1006.8000
611.93,986.4000
612.20,998.2000
612.48,972.2000
612.75,991.2000
613.03,996.4000
613.30,992.4000
613.57,1004.2000
613.85,1001.6000
614.12,1024.2000
614.40,984.8000
614.67,1000.6000
614.95,1001.2000
615.22,996.6000
615.50,977.2000
615.77,1017.6000
616.05,1006.0000
616.32,1013.0000
616.59,983.6000
616.87,1003.4000
617.14,1000.4000
617.42,1001.0000
617.69,1002.2000
617.97,994.2000
618.24,987.8000
618.51,972.4000
618.79,992.6000
619.06,980.4000
619.34,991.6000
619.61,986.0000
619.88,1031.0000
620.16,1002.0000
620.43,1006.0000
620.71,990.0000
620.98,985.2000
621.26,991.2000
621.53,998.0000
621.80,1001.4000
622.08,1004.8000
622.35,990.8000
622.62,1001.4000
622.90,996.8000
623.17,994.8000
623.45,1009.2000
623.72,1004.2000
623.99,995.6000
624.27,998.2000
624.54,1012.0000
624.81,1026.2000
625.09,997.6000
625.36,997.8000
625.64,1016.4000
625.91,1006.4000
626.18,985.0000
626.46,993.4000
626.73,1036.0000
627.00,1013.8000
627.28,998.6000
627.55,996.2000
627.82,985.2000
628.10,1006.2000
628.37,976.2000
628.64,978.6000
628.92,975.0000
629.19,987.4000
629.46,994.8000
629.74,984.0000
630.01,991.8000
630.28,1004.4000
630.56,991.2000
630.83,975.6000
631.10,985.2000
631.37,1000.0000
631.65,988.8000
631.92,985.4000
632.19,989.0000
632.47,1014.4000
632.74,995.8000
633.01,1007.8000
633.28,999.0000
633.56,994.8000
633.83,980.0000
634.10,984.6000
634.38,989.0000
634.65,1003.2000
634.92,999.0000
635.19,1014.6000
635.47,994.8000
635.74,990.4000
636.01,981.4000
636.28,978.2000
636.56,999.0000
636.83,986.0000
637.10,1011.4000
637.37,1007.0000
637.65,991.0000
637.92,988.4000
638.19,971.2000
638.46,1018.2000
638.74,990.2000
639.01,1007.8000
639.28,966.8000
639.55,1002.0000
639.83,980.8000
640.10,982.2000
640.37,1004.4000
640.64,979.4000
640.91,993.4000
641.19,981.0000
641.46,993.4000
641.73,1016.0000
642.00,993.8000
642.28,1010.0000
642.55,997.2000
642.82,989.2000
643.09,1009.0000
643.36,1007.0000
643.63,1004.0000
643.91,998.0000
644.18,1000.0000
644.45,995.8000
644.72,1015.6000
644.99,989.6000
645.27,979.6000
645.54,990.8000
645.81,1043.6000
646.08,1009.6000
646.35,983.4000
646.62,996.4000
646.90,994.2000
647.17,1012.0000
647.44,1005.0000
647.71,1003.6000
647.98,976.6000
648.25,996.0000
648.52,975.0000
648.80,990.0000
649.07,994.4000
649.34,992.8000
649.61,986.6000
649.88,1017.2000
650.15,1002.4000
650.42,993.2000
650.69,993.8000
650.97,1017.4000
651.24,1002.4000
651.51,1004.2000
651.78,1010.6000
652.05,973.0000
652.32,990.0000
652.59,1033.4000
652.86,995.6000
653.13,988.4000
653.41,996.4000
653.68,1007.2000
653.95,1003.6000
654.22,998.8000
654.49,996.8000
654.76,981.6000
655.03,1012.6000
655.30,976.4000
655.57,986.8000
655.84,995.4000
656.11,1011.8000
656.38,989.6000
656.66,1001.2000
656.93,988.4000
657.20,990.2000
657.47,1015.8000
657.74,1000.6000
658.01,1012.4000
658.28,978.4000
658.55,995.8000
658.82,994.4000
659.09,1015.4000
659.36,998.4000
659.63,988.2000
659.90,996.6000
660.17,1013.4000
660.44,986.2000
660.71,995.4000
660.98,995.6000
661.25,995.8000
661.52,983.8000
661.79,981.8000
662.06,989.6000
662.33,982.2000
662.60,974.0000
662.87,997.2000
663.14,977.6000
663.41,998.8000
663.68,983.2000
663.95,974.8000
664.22,998.0000
664.49,1001.8000
664.76,985.8000
665.03,978.4000
665.30,995.6000
665.57,973.6000
665.84,985.0000
666.11,985.6000
666.38,974.2000
666.65,997.4000
666.92,1028.0000
667.19,987.0000
667.46,996.2000
667.73,995.2000
668.00,1000.0000
668.27,998.2000
668.54,1010.4000
668.81,983.8000
669.08,1008.4000
669.35,985.0000
669.62,1012.2000
669.89,985.0000
670.16,1006.2000
670.42,988.0000
670.69,993.2000
670.96,1002.2000
671.23,988.8000
671.50,984.0000
671.77,981.6000
672.04,993.0000
672.31,988.8000
672.58,985.0000
672.85,995.4000
673.12,986.2000
673.39,1003.8000
673.65,979.4000
673.92,1012.4000
674.19,991.8000
674.46,1003.8000
674.73,989.2000
675.00,985.6000
675.27,999.2000
675.54,1004.2000
675.81,994.4000
676.07,1000.2000
676.34,1028.0000
676.61,1019.2000
676.88,978.6000
677.15,989.4000
677.42,1005.4000
677.69,996.8000
677.96,1005.2000
678.22,1010.6000
678.49,980.8000
678.76,992.2000
679.03,985.2000
679.30,993.8000
679.57,973.8000
679.83,1008.4000
680.10,993.4000
680.37,1004.2000
680.64,1008.2000
680.91,984.4000
681.18,1007.2000
681.44,989.2000
681.71,976.2000
681.98,1008.8000
682.25,998.0000
682.52,993.8000
682.79,995.8000
683.05,1016.4000
683.32,996.4000
683.59,1010.4000
683.86,1000.0000
684.13,1017.0000
684.39,987.4000
684.66,988.0000
684.93,1002.8000
685.20,1007.2000
685.47,994.6000
685.73,997.4000
686.00,974.2000
686.27,1003.4000
686.54,979.2000
686.80,1002.0000
687.07,1008.4000
687.34,978.4000
687.61,995.2000
687.88,995.8000
688.14,988.6000
688.41,1009.8000
688.68,986.8000
688.95,991.8000
689.21,984.8000
689.48,1018.0000
689.75,999.4000
690.02,975.2000
690.28,978.8000
690.55,993.4000
690.82,968.8000
691.08,993.6000
691.35,995.6000
691.62,1010.8000
691.89,1000.4000
692.15,1003.4000
692.42,993.6000
692.69,968.4000
692.95,984.0000
693.22,1002.2000
693.49,992.2000
693.76,998.0000
694.02,989.6000
694.29,995.6000
694.56,987.6000
694.82,1015.4000
695.09,982.0000
695.36,987.4000
695.62,981.0000
695.89,1002.2000
696.16,984.2000
696.43,1009.8000
696.69,1021.0000
696.96,1017.8000
697.23,991.6000
697.49,1004.6000
697.76,1013.4000
698.03,990.4000
698.29,980.2000
698.56,994.2000
698.82,988.0000
699.09,1017.6000
699.36,997.2000
699.62,988.2000
699.89,996.0000
700.16,981.2000
700.42,1008.6000
700.69,1000.8000
700.96,995.8000
701.22,1011.6000
701.49,986.6000
701.75,1004.0000
702.02,989.4000
702.29,1000.6000
702.55,994.2000
702.82,999.4000
703.09,996.0000
703.35,1011.8000
703.62,993.0000
703.88,1016.2000
704.15,981.4000
704.42,1000.6000
704.68,973.0000
704.95,1018.0000
705.21,983.2000
705.48,1008.0000
705.75,979.0000
706.01,1002.2000
706.28,979.0000
706.54,987.0000
706.81,995.6000
707.07,995.2000
707.34,985.6000
707.61,1000.0000
707.87,998.0000
708.14,993.8000
708.40,997.6000
708.67,1005.0000
708.93,995.2000
709.20,991.4000
709.46,1004.6000
709.73,1002.8000
709.99,1001.4000
710.26,987.0000
710.53,975.4000
710.79,962.0000
711.06,1008.8000
711.32,1075.6000
711.59,1022.0000
711.85,1010.8000
712.12,992.4000
712.38,983.4000
712.65,988.4000
712.91,991.6000
713.18,1017.2000
713.44,1003.8000
713.71,980.6000
713.97,1006.4000
714.24,999.0000
714.50,994.8000
714.77,997.6000
715.03,1001.2000
715.30,1003.4000
715.56,997.8000
715.83,982.2000
716.09,1005.0000
716.36,1033.2000
716.62,1000.0000
716.89,974.4000
717.15,1014.4000
717.42,973.8000
717.68,975.0000
717.94,989.0000
718.21,998.0000
718.47,1006.6000
718.74,997.0000
719.00,1014.8000
719.27,1005.2000
719.53,982.8000
719.80,1002.2000
720.06,999.4000
720.32,1014.8000
720.59,1000.2000
720.85,1007.2000
721.12,984.4000
721.38,1008.4000
721.65,990.4000
721.91,988.2000
722.17,986.0000
722.44,1007.6000
722.70,996.8000
722.97,993.8000
723.23,997.2000
723.49,978.8000
723.76,983.6000
724.02,1016.4000
724.29,1003.8000
724.55,1000.6000
724.81,1015.8000
725.08,1006.8000
725.34,1015.2000
725.61,991.2000
725.87,1002.8000
726.13,1000.2000
726.40,1005.4000
726.66,1005.6000
726.92,1000.6000
727.19,991.6000
727.45,986.2000
727.71,1010.4000
727.98,987.4000
728.24,1012.2000
728.51,994.4000
728.77,981.6000
729.03,1004.6000
729.30,1003.8000
729.56,980.4000
729.82,1017.4000
730.09,989.2000
730.35,984.8000
730.61,995.6000
730.88,994.0000
731.14,978.0000
731.40,1004.0000
731.67,996.6000
731.93,983.6000
732.19,1001.2000
732.45,1010.2000
732.72,971.4000
