Wavelength (nm),Intensity
394.27,1014.0000
394.56,1000.8000
394.85,1011.8000
395.14,1005.6000
395.44,996.8000
395.73,1010.8000
396.02,991.4000
396.31,1000.4000
396.61,1010.8000
396.90,988.2000
397.19,1011.2000
397.48,1014.4000
397.77,991.8000
398.06,1014.6000
398.36,1000.2000
398.65,995.2000
398.94,992.2000
399.23,977.2000
399.52,997.0000
399.82,987.8000
400.11,1001.0000
400.40,1010.8000
400.69,992.6000
400.98,997.2000
401.27,1014.4000
401.57,977.8000
401.86,992.2000
402.15,994.0000
402.44,990.8000
402.73,993.0000
403.02,1015.8000
403.32,987.8000
403.61,992.2000
403.90,990.2000
404.19,1010.2000
404.48,1010.0000
404.77,1011.6000
405.06,1012.8000
405.36,1024.2000
405.65,999.2000
405.94,978.8000
406.23,1007.4000
406.52,1017.6000
406.81,1022.4000
407.10,1009.4000
407.40,1011.2000
407.69,993.8000
407.98,1006.2000
408.27,994.8000
408.56,985.4000
408.85,1030.4000
409.14,990.6000
409.43,1004.0000
409.72,994.8000
410.02,1031.8000
410.31,996.6000
410.60,993.8000
410.89,1022.4000
411.18,996.0000
411.47,992.0000
411.76,995.2000
412.05,1000.2000
412.34,1004.6000
412.63,987.4000
412.93,1043.4000
413.22,1012.2000
413.51,998.2000
413.80,1015.8000
414.09,991.6000
414.38,989.4000
414.67,1016.2000
414.96,973.4000
415.25,1047.6000
415.54,1012.4000
415.83,977.2000
416.12,979.8000
416.41,977.4000
416.70,1010.4000
417.00,1014.8000
417.29,997.2000
417.58,1008.0000
417.87,994.4000
418.16,1008.2000
418.45,996.8000
418.74,986.8000
419.03,984.8000
419.32,1021.0000
419.61,1006.6000
419.90,999.4000
420.19,1015.4000
420.48,1000.0000
420.77,982.6000
421.06,991.0000
421.35,1001.2000
421.64,991.2000
421.93,981.2000
422.22,1001.2000
422.51,1024.0000
422.80,994.8000
423.09,997.4000
423.38,1033.6000
423.67,996.8000
423.96,991.4000
424.25,976.2000
424.54,984.8000
424.83,967.8000
425.12,995.0000
425.41,1001.2000
425.70,1055.6000
425.99,998.4000
426.28,1008.4000
426.57,996.6000
426.86,999.6000
427.15,1003.0000
427.44,1018.6000
427.73,1017.0000
428.02,995.6000
428.31,1012.8000
428.60,1025.0000
428.89,1022.2000
429.18,1003.8000
429.47,1014.0000
429.76,987.4000
430.05,980.2000
430.34,1013.8000
430.63,1003.2000
430.92,1019.0000
431.21,1006.2000
431.50,979.8000
431.79,991.8000
432.08,992.0000
432.37,988.8000
432.66,987.0000
432.94,994.0000
433.23,987.4000
433.52,1002.4000
433.81,1006.6000
434.10,1051.6000
434.39,1000.4000
434.68,1019.2000
434.97,986.6000
435.26,996.4000
435.55,1003.6000
435.84,994.8000
436.13,988.2000
436.42,1015.0000
436.71,994.4000
436.99,994.0000
437.28,1000.2000
437.57,1005.4000
437.86,996.0000
438.15,1007.8000
438.44,982.8000
438.73,1006.4000
439.02,1014.2000
439.31,1020.6000
439.60,994.4000
439.88,1003.2000
440.17,1001.6000
440.46,1011.2000
440.75,984.2000
441.04,974.0000
441.33,1021.6000
441.62,1006.2000
441.91,983.8000
442.20,1000.4000
442.48,1002.4000
442.77,986.8000
443.06,999.4000
443.35,979.2000
443.64,1005.4000
443.93,988.0000
444.22,985.4000
444.50,1015.0000
444.79,1003.6000
445.08,1005.4000
445.37,1008.2000
445.66,991.6000
445.95,983.4000
446.24,982.0000
446.52,997.6000
446.81,1018.2000
447.10,976.8000
447.39,1011.8000
447.68,983.8000
447.97,979.0000
448.25,1017.6000
448.54,1011.8000
448.83,1010.8000
449.12,1027.2000
449.41,993.2000
449.69,992.6000
449.98,990.4000
450.27,996.8000
450.56,981.6000
450.85,1013.0000
451.14,989.0000
451.42,984.2000
451.71,1009.4000
452.00,999.4000
452.29,1001.0000
452.58,990.8000
452.86,997.0000
453.15,990.2000
453.44,993.0000
453.73,1017.2000
454.01,994.6000
454.30,1048.4000
454.59,982.0000
454.88,979.8000
455.17,972.8000
455.45,989.4000
455.74,1030.0000
456.03,998.0000
456.32,990.2000
456.60,978.6000
456.89,1007.2000
457.18,980.8000
457.47,980.0000
457.76,988.0000
458.04,987.4000
458.33,1001.0000
458.62,994.2000
458.91,975.2000
459.19,976.2000
459.48,982.2000
459.77,977.6000
460.06,995.2000
460.34,998.6000
460.63,998.8000
460.92,993.0000
461.20,985.0000
461.49,989.4000
461.78,979.2000
462.07,985.6000
462.35,997.4000
462.64,983.4000
462.93,1004.4000
463.22,1005.4000
463.50,999.2000
463.79,1005.2000
464.08,1005.0000
464.36,1011.2000
464.65,995.2000
464.94,995.2000
465.22,1002.0000
465.51,984.2000
465.80,1016.6000
466.09,993.0000
466.37,1005.2000
466.66,1013.0000
466.95,987.0000
467.23,988.4000
467.52,1004.6000
467.81,1026.0000
468.09,985.2000
468.38,995.6000
468.67,1017.4000
468.95,989.6000
469.24,984.2000
469.53,1000.2000
469.81,1009.6000
470.10,999.8000
470.39,1009.8000
470.67,982.2000
470.96,1004.2000
471.25,988.8000
471.53,1011.4000
471.82,991.2000
472.11,994.8000
472.39,986.4000
472.68,1004.4000
472.97,982.6000
473.25,1005.0000
473.54,983.8000
473.82,990.6000
474.11,992.8000
474.40,987.0000
474.68,1026.0000
474.97,1009.2000
475.26,997.8000
475.54,979.2000
475.83,1007.4000
476.11,993.8000
476.40,1017.0000
476.69,1002.2000
476.97,1002.4000
477.26,994.2000
477.55,1005.6000
477.83,974.6000
478.12,996.4000
478.40,990.2000
478.69,982.0000
478.98,988.2000
479.26,974.4000
479.55,1002.0000
479.83,980.4000
480.12,1003.8000
480.40,1020.0000
480.69,981.4000
480.98,980.0000
481.26,1016.6000
481.55,984.2000
481.83,996.2000
482.12,994.4000
482.41,993.8000
482.69,978.8000
482.98,991.4000
483.26,1019.6000
483.55,983.8000
483.83,1002.8000
484.12,1003.6000
484.40,997.6000
484.69,976.4000
484.98,1002.4000
485.26,996.0000
485.55,990.8000
485.83,971.8000
486.12,993.6000
486.40,1010.0000
486.69,991.4000
486.97,1002.4000
487.26,1004.8000
487.54,996.4000
487.83,993.4000
488.11,993.2000
488.40,1027.6000
488.68,1016.6000
488.97,993.6000
489.26,1000.4000
489.54,1014.0000
489.83,994.0000
490.11,986.8000
490.40,1007.0000
490.68,1004.0000
490.97,960.6000
491.25,1000.2000
491.54,989.8000
491.82,1002.6000
492.11,989.6000
492.39,1003.4000
492.68,986.6000
492.96,1012.2000
493.24,986.6000
493.53,972.6000
493.81,1023.6000
494.10,984.0000
494.38,971.4000
494.67,990.6000
494.95,1016.2000
495.24,985.8000
495.52,1003.8000
495.81,1004.8000
496.09,1011.4000
496.38,977.4000
496.66,1008.0000
496.95,992.6000
497.23,990.0000
497.51,989.0000
497.80,994.8000
498.08,981.8000
498.37,983.2000
498.65,1000.6000
498.94,1027.8000
499.22,995.6000
499.51,988.6000
499.79,1001.0000
500.07,982.8000
500.36,1017.2000
500.64,1007.8000
500.93,994.0000
501.21,1016.0000
501.50,984.6000
501.78,998.6000
502.06,975.6000
502.35,979.0000
502.63,973.8000
502.92,1002.6000
503.20,1014.6000
503.48,1030.0000
503.77,1004.8000
504.05,999.6000
504.34,988.0000
504.62,1000.8000
504.90,1010.4000
505.19,1018.6000
505.47,986.6000
505.76,980.2000
506.04,989.0000
506.32,1004.2000
506.61,972.0000
506.89,1001.0000
507.17,984.2000
507.46,1003.8000
507.74,1005.0000
508.03,992.8000
508.31,1004.6000
508.59,970.6000
508.88,976.2000
509.16,1027.2000
509.44,1006.6000
509.73,994.4000
510.01,1005.2000
510.29,997.2000
510.58,988.6000
510.86,994.2000
511.14,1010.6000
511.43,994.0000
511.71,1003.6000
511.99,981.2000
512.28,998.2000
512.56,977.8000
512.84,994.0000
513.13,974.6000
513.41,1000.2000
513.69,999.6000
513.98,970.6000
514.26,1000.0000
514.54,996.6000
514.83,997.8000
515.11,1004.4000
515.39,997.2000
515.68,1018.2000
515.96,991.6000
516.24,988.6000
516.53,983.2000
516.81,1016.4000
517.09,979.2000
517.37,990.4000
517.66,988.8000
517.94,996.8000
518.22,986.4000
518.51,988.4000
518.79,996.0000
519.07,985.8000
519.35,988.2000
519.64,998.2000
519.92,1008.2000
520.20,1001.4000
520.48,1000.0000
520.77,999.2000
521.05,976.6000
521.33,972.6000
521.62,976.8000
521.90,996.2000
522.18,984.2000
522.46,996.4000
522.75,981.6000
523.03,995.4000
523.31,974.8000
523.59,1020.2000
523.88,1003.4000
524.16,982.2000
524.44,1007.4000
524.72,1007.4000
525.00,1009.4000
525.29,1000.0000
525.57,992.8000
525.85,1000.0000
526.13,982.2000
526.42,957.0000
526.70,989.6000
526.98,984.0000
527.26,984.2000
527.54,993.6000
527.83,992.6000
528.11,984.6000
528.39,1011.8000
528.67,997.0000
528.95,989.6000
529.24,971.4000
529.52,1008.6000
529.80,995.2000
530.08,1012.6000
530.36,989.6000
530.65,1013.4000
530.93,989.4000
531.21,986.6000
531.49,986.4000
531.77,1006.4000
532.05,996.8000
532.34,1000.0000
532.62,990.8000
532.90,1003.4000
533.18,1008.8000
533.46,999.4000
533.74,1006.2000
534.03,977.6000
534.31,984.6000
534.59,988.8000
534.87,1004.2000
535.15,995.6000
535.43,1002.2000
535.71,1000.2000
536.00,1013.8000
536.28,985.4000
536.56,991.6000
536.84,997.2000
537.12,987.4000
537.40,995.2000
537.68,990.4000
537.97,998.4000
538.25,983.6000
538.53,1002.6000
538.81,1003.8000
539.09,975.6000
539.37,996.2000
539.65,996.4000
539.93,995.8000
540.21,996.2000
540.50,971.8000
540.78,1003.6000
541.06,1001.6000
541.34,1003.6000
541.62,1001.2000
541.90,1009.0000
542.18,991.2000
542.46,1006.2000
542.74,1005.6000
543.02,986.0000
543.30,990.2000
543.58,1003.4000
543.87,995.8000
544.15,980.8000
544.43,1015.0000
544.71,1009.2000
544.99,1007.2000
545.27,995.4000
545.55,981.4000
545.83,982.8000
546.11,1000.8000
546.39,1001.0000
546.67,1005.6000
546.95,978.4000
547.23,988.8000
547.51,990.8000
547.79,996.2000
548.07,989.2000
548.35,987.4000
548.63,982.8000
548.91,1017.2000
549.20,992.6000
549.48,1026.2000
549.76,990.8000
550.04,986.8000
550.32,1001.2000
550.60,981.8000
550.88,971.6000
551.16,998.6000
551.44,990.6000
551.72,975.2000
552.00,983.4000
552.28,1000.0000
552.56,1021.4000
552.84,1014.6000
553.12,991.4000
553.40,986.4000
553.68,1013.0000
553.96,990.4000
554.24,983.8000
554.52,998.4000
554.80,998.0000
555.08,1001.8000
555.36,980.2000
555.64,1004.8000
555.92,992.6000
556.19,1001.2000
556.47,990.8000
556.75,989.2000
557.03,1007.8000
557.31,1000.0000
557.59,997.4000
557.87,994.2000
558.15,990.2000
558.43,983.6000
558.71,990.8000
558.99,988.2000
559.27,1008.4000
559.55,986.4000
559.83,981.8000
560.11,997.2000
560.39,984.0000
560.67,991.6000
560.95,1003.4000
561.23,995.0000
561.50,983.6000
561.78,987.4000
562.06,992.2000
562.34,990.4000
562.62,989.4000
562.90,1019.2000
563.18,1001.6000
563.46,984.2000
563.74,989.6000
564.02,1019.4000
564.30,979.2000
564.57,986.4000
564.85,973.2000
565.13,1022.2000
565.41,991.4000
565.69,1001.8000
565.97,1003.0000
566.25,975.8000
566.53,989.0000
566.81,1008.0000
567.08,1006.4000
567.36,981.6000
567.64,986.2000
567.92,1011.8000
568.20,973.4000
568.48,994.6000
568.76,1017.4000
569.04,999.6000
569.31,1014.2000
569.59,1004.6000
569.87,991.8000
570.15,975.2000
570.43,995.2000
570.71,1001.0000
570.99,992.0000
571.26,996.4000
571.54,1000.4000
571.82,990.0000
572.10,992.6000
572.38,981.8000
572.66,1004.6000
572.93,986.8000
573.21,997.6000
573.49,998.0000
573.77,1016.4000
574.05,967.6000
574.32,991.6000
574.60,1000.2000
574.88,993.8000
575.16,1016.4000
575.44,997.0000
575.71,993.0000
575.99,1048.0000
576.27,1011.6000
576.55,984.8000
576.83,1007.0000
577.10,1005.4000
577.38,1006.2000
577.66,986.8000
577.94,1008.2000
578.22,977.6000
578.49,1004.0000
578.77,984.0000
579.05,1008.0000
579.33,1004.8000
579.60,1002.4000
579.88,1001.8000
580.16,997.4000
580.44,1007.4000
580.72,980.8000
580.99,1000.8000
581.27,981.4000
581.55,997.8000
581.83,990.2000
582.10,988.2000
582.38,1001.2000
582.66,1011.2000
582.94,994.8000
583.21,1010.4000
583.49,1011.2000
583.77,1002.8000
584.04,999.8000
584.32,1008.8000
584.60,999.0000
584.88,989.6000
585.15,1008.2000
585.43,982.6000
585.71,983.4000
585.98,982.0000
586.26,977.2000
586.54,994.8000
586.82,990.8000
587.09,980.8000
587.37,1004.6000
587.65,972.8000
587.92,998.4000
588.20,1003.4000
588.48,1029.6000
588.75,980.4000
589.03,988.4000
589.31,993.0000
589.59,987.8000
589.86,1019.8000
590.14,997.2000
590.42,1006.2000
590.69,1007.2000
590.97,977.2000
591.25,976.8000
591.52,994.2000
591.80,1013.2000
592.08,987.2000
592.35,1001.6000
592.63,1004.0000
592.91,999.0000
593.18,1001.4000
593.46,990.8000
593.73,996.6000
594.01,1006.2000
594.29,1013.8000
594.56,981.8000
594.84,990.2000
595.12,1003.2000
595.39,992.0000
595.67,988.8000
595.95,998.8000
596.22,992.4000
596.50,985.0000
596.77,986.8000
597.05,1017.8000
597.33,1009.6000
597.60,996.8000
597.88,984.6000
598.15,1005.8000
598.43,982.0000
598.71,996.2000
598.98,1054.8000
599.26,1014.4000
599.53,983.0000
599.81,1009.0000
600.09,987.4000
600.36,984.0000
600.64,1000.6000
600.91,989.8000
601.19,991.2000
601.47,988.0000
601.74,987.6000
602.02,994.2000
602.29,986.6000
602.57,994.8000
602.84,985.4000
603.12,984.8000
603.40,991.6000
603.67,990.6000
603.95,1003.8000
604.22,1036.0000
604.50,997.8000
604.77,998.2000
605.05,984.4000
605.32,994.6000
605.60,1004.6000
605.87,985.6000
606.15,994.0000
606.42,995.2000
606.70,991.4000
606.98,992.6000
607.25,991.0000
607.53,1006.8000
607.80,1002.8000
608.08,996.0000
608.35,1004.4000
608.63,978.2000
608.90,1012.6000
609.18,998.0000
609.45,979.0000
609.73,1002.6000
610.00,1019.2000
610.28,1002.6000
610.55,991.8000
610.83,997.0000
611.10,991.0000
611.38,1005.4000
611.65,1006.2000
611.93,991.0000
612.20,1009.2000
612.48,973.2000
612.75,994.8000
613.03,991.2000
613.30,986.8000
613.57,992.8000
613.85,992.0000
614.12,1017.6000
614.40,989.0000
614.67,985.6000
614.95,1008.8000
615.22,987.0000
615.50,988.6000
615.77,1011.0000
616.05,989.8000
616.32,999.4000
616.59,993.0000
616.87,992.4000
617.14,999.0000
617.42,995.0000
617.69,988.2000
617.97,987.0000
618.24,988.4000
618.51,974.0000
618.79,982.4000
619.06,979.4000
619.34,998.6000
619.61,977.0000
619.88,1016.2000
620.16,991.4000
620.43,1008.8000
620.71,976.2000
620.98,988.6000
621.26,999.8000
621.53,1008.4000
621.80,1000.4000
622.08,997.8000
622.35,991.0000
622.62,1004.6000
622.90,995.2000
623.17,1000.6000
623.45,1013.0000
623.72,1006.8000
623.99,988.6000
624.27,990.0000
624.54,1018.0000
624.81,1020.8000
625.09,995.6000
625.36,999.6000
625.64,1012.4000
625.91,993.4000
626.18,983.8000
626.46,987.6000
626.73,1029.0000
627.00,1017.8000
627.28,990.8000
627.55,987.6000
627.82,984.4000
628.10,1009.8000
628.37,975.2000
628.64,992.0000
628.92,978.4000
629.19,991.4000
629.46,995.4000
629.74,983.4000
630.01,994.6000
630.28,990.4000
630.56,994.6000
630.83,969.6000
631.10,990.2000
631.37,995.8000
631.65,985.0000
631.92,993.6000
632.19,989.2000
632.47,1013.0000
632.74,1007.4000
633.01,1016.2000
633.28,984.2000
633.56,994.4000
633.83,969.2000
634.10,982.0000
634.38,981.8000
634.65,997.4000
634.92,994.0000
635.19,1016.8000
635.47,1000.0000
635.74,997.2000
636.01,977.4000
636.28,973.2000
636.56,993.4000
636.83,999.6000
637.10,1010.4000
637.37,1002.6000
637.65,1000.8000
637.92,981.6000
638.19,974.8000
638.46,1016.6000
638.74,990.0000
639.01,1014.0000
639.28,975.0000
639.55,1000.0000
639.83,974.0000
640.10,988.0000
640.37,1000.4000
640.64,980.4000
640.91,1009.0000
641.19,999.6000
641.46,1001.2000
641.73,1016.2000
642.00,980.0000
642.28,1004.2000
642.55,983.6000
642.82,989.2000
643.09,1005.8000
643.36,1005.8000
643.63,986.2000
643.91,1004.2000
644.18,999.2000
644.45,988.0000
644.72,1003.0000
644.99,983.4000
645.27,969.4000
645.54,999.0000
645.81,1035.4000
646.08,1011.6000
646.35,977.8000
646.62,990.2000
646.90,994.8000
647.17,1013.4000
647.44,995.0000
647.71,1002.6000
647.98,964.6000
648.25,982.8000
648.52,976.8000
648.80,991.0000
649.07,991.0000
649.34,992.0000
649.61,982.8000
649.88,1017.4000
650.15,1001.2000
650.42,992.4000
650.69,988.6000
650.97,1003.2000
651.24,1004.4000
651.51,1000.6000
651.78,1006.2000
652.05,981.6000
652.32,986.2000
652.59,1016.6000
652.86,989.4000
653.13,971.8000
653.41,1000.2000
653.68,1013.2000
653.95,1000.2000
654.22,991.2000
654.49,1012.8000
654.76,984.6000
655.03,1016.8000
655.30,977.0000
655.57,986.4000
655.84,1002.2000
656.11,1018.6000
656.38,992.2000
656.66,982.6000
656.93,977.0000
657.20,983.8000
657.47,1027.0000
657.74,993.6000
658.01,1017.4000
658.28,979.8000
658.55,978.2000
658.82,998.4000
659.09,1011.4000
659.36,1001.0000
659.63,979.2000
659.90,997.8000
660.17,1001.6000
660.44,988.6000
660.71,990.6000
660.98,997.8000
661.25,1008.0000
661.52,987.2000
661.79,988.8000
662.06,981.8000
662.33,980.4000
662.60,973.0000
662.87,1009.8000
663.14,989.0000
663.41,996.6000
663.68,981.2000
663.95,981.4000
664.22,1000.2000
664.49,1000.4000
664.76,974.0000
665.03,973.4000
665.30,982.6000
665.57,987.4000
665.84,980.6000
666.11,982.0000
666.38,992.4000
666.65,991.0000
666.92,1040.0000
667.19,986.0000
667.46,1000.4000
667.73,1001.2000
668.00,992.4000
668.27,995.8000
668.54,1011.6000
668.81,985.8000
669.08,999.2000
669.35,987.0000
669.62,1018.4000
669.89,988.6000
670.16,1004.6000
670.42,976.2000
670.69,990.4000
670.96,996.2000
671.23,1001.6000
671.50,980.0000
671.77,977.0000
672.04,989.2000
672.31,981.2000
672.58,981.0000
672.85,978.2000
673.12,981.8000
673.39,998.0000
673.65,980.2000
673.92,1002.2000
674.19,987.2000
674.46,998.2000
674.73,999.2000
675.00,983.2000
675.27,995.6000
675.54,1001.6000
675.81,998.4000
676.07,999.4000
676.34,1034.0000
676.61,1008.8000
676.88,986.6000
677.15,992.0000
677.42,1002.2000
677.69,979.8000
677.96,1008.6000
678.22,994.2000
678.49,983.0000
678.76,984.0000
679.03,987.2000
679.30,978.8000
679.57,977.8000
679.83,1005.4000
680.10,992.6000
680.37,998.6000
680.64,1007.2000
680.91,985.0000
681.18,996.0000
681.44,983.4000
681.71,972.6000
681.98,1002.0000
682.25,992.6000
682.52,997.0000
682.79,997.8000
683.05,1015.4000
683.32,984.8000
683.59,1012.6000
683.86,1000.8000
684.13,1010.2000
684.39,983.0000
684.66,992.0000
684.93,998.4000
685.20,1004.4000
685.47,980.0000
685.73,992.8000
686.00,976.0000
686.27,1002.6000
686.54,988.4000
686.80,1013.4000
687.07,1008.0000
687.34,962.8000
687.61,989.0000
687.88,983.8000
688.14,995.0000
688.41,1008.2000
688.68,978.0000
688.95,984.6000
689.21,984.8000
689.48,1025.4000
689.75,1002.4000
690.02,984.4000
690.28,982.6000
690.55,999.4000
690.82,971.6000
691.08,992.8000
691.35,990.6000
691.62,994.2000
691.89,1001.8000
692.15,996.8000
692.42,1002.2000
692.69,968.4000
692.95,994.4000
693.22,1002.2000
693.49,993.4000
693.76,986.4000
694.02,987.6000
694.29,995.0000
694.56,980.0000
694.82,999.4000
695.09,976.8000
695.36,986.4000
695.62,984.8000
695.89,1011.8000
696.16,976.6000
696.43,1014.0000
696.69,1008.6000
696.96,1014.4000
697.23,979.4000
697.49,993.6000
697.76,1009.2000
698.03,990.4000
698.29,983.8000
698.56,994.4000
698.82,979.4000
699.09,1015.8000
699.36,1000.4000
699.62,990.2000
699.89,996.0000
700.16,979.0000
700.42,1011.8000
700.69,1000.4000
700.96,998.0000
701.22,1004.2000
701.49,994.8000
701.75,1013.6000
702.02,994.4000
702.29,989.8000
702.55,981.4000
702.82,1004.4000
703.09,1000.8000
703.35,1006.0000
703.62,1001.4000
703.88,1020.0000
704.15,965.2000
704.42,1004.6000
704.68,978.8000
704.95,1024.2000
705.21,984.6000
705.48,997.4000
705.75,979.2000
706.01,1005.2000
706.28,988.6000
706.54,988.2000
706.81,997.2000
707.07,995.0000
707.34,974.6000
707.61,1006.6000
707.87,999.2000
708.14,1002.8000
708.40,997.6000
708.67,1001.4000
708.93,998.0000
709.20,992.8000
709.46,994.4000
709.73,1018.2000
709.99,995.8000
710.26,991.0000
710.53,982.2000
710.79,966.8000
711.06,995.8000
711.32,1065.6000
711.59,1013.6000
711.85,1021.6000
712.12,989.4000
712.38,971.6000
712.65,991.4000
712.91,999.8000
713.18,1007.0000
713.44,1008.8000
713.71,982.4000
713.97,1007.6000
714.24,993.2000
714.50,982.8000
714.77,1000.6000
715.03,1004.2000
715.30,999.2000
715.56,1004.8000
715.83,994.0000
716.09,996.4000
716.36,1035.0000
716.62,1002.8000
716.89,981.0000
717.15,1016.4000
717.42,989.8000
717.68,976.4000
717.94,976.0000
718.21,991.8000
718.47,1017.2000
718.74,990.2000
719.00,1020.8000
719.27,994.8000
719.53,984.4000
719.80,996.0000
720.06,1003.4000
720.32,1013.0000
720.59,988.0000
720.85,1005.2000
721.12,982.6000
721.38,994.0000
721.65,982.8000
721.91,986.6000
722.17,975.6000
722.44,1001.8000
722.70,986.4000
722.97,993.2000
723.23,993.6000
723.49,984.0000
723.76,981.8000
724.02,1027.4000
724.29,1003.4000
724.55,994.8000
724.81,1005.6000
725.08,1003.8000
725.34,1010.4000
725.61,983.8000
725.87,1000.4000
726.13,995.2000
726.40,1000.2000
726.66,988.8000
726.92,995.0000
727.19,993.0000
727.45,989.4000
727.71,1006.2000
727.98,987.4000
728.24,1016.4000
728.51,994.0000
728.77,987.0000
729.03,1004.4000
729.30,999.8000
729.56,993.2000
729.82,1013.6000
730.09,989.2000
730.35,990.0000
730.61,1000.0000
730.88,991.4000
731.14,989.8000
731.40,1004.8000
731.67,992.8000
731.93,993.4000
732.19,995.8000
732.45,1000.6000
732.72,981.2000
732.98,1002.6000
733.24,979.2000
