Wavelength (nm),Intensity
394.27,1016.0000
394.56,997.2000
394.85,1010.8000
395.14,996.6000
395.44,1011.8000
395.73,1015.8000
396.02,987.2000
396.31,999.0000
396.61,1004.2000
396.90,995.2000
397.19,1009.2000
397.48,1002.6000
397.77,993.6000
398.06,995.2000
398.36,1010.2000
398.65,991.2000
398.94,995.0000
399.23,994.2000
399.52,995.4000
399.82,1000.8000
400.11,995.0000
400.40,1010.2000
400.69,981.6000
400.98,986.0000
401.27,1021.8000
401.57,974.4000
401.86,1002.4000
402.15,997.6000
402.44,997.6000
402.73,996.2000
403.02,1020.2000
403.32,984.6000
403.61,1006.4000
403.90,999.0000
404.19,1001.4000
404.48,1010.6000
404.77,1006.2000
405.06,1015.4000
405.36,1012.0000
405.65,1001.8000
405.94,978.0000
406.23,1012.0000
406.52,1030.6000
406.81,1017.8000
407.10,1002.6000
407.40,1005.6000
407.69,997.4000
407.98,1007.4000
408.27,994.6000
408.56,985.6000
408.85,1031.4000
409.14,992.8000
409.43,1004.4000
409.72,987.2000
410.02,1033.2000
410.31,1009.4000
410.60,999.4000
410.89,1018.8000
411.18,993.4000
411.47,994.2000
411.76,1004.4000
412.05,1001.8000
412.34,1001.2000
412.63,998.2000
412.93,1038.2000
413.22,1018.0000
413.51,987.2000
413.80,1010.8000
414.09,990.2000
414.38,989.8000
414.67,1008.4000
414.96,978.8000
415.25,1034.2000
415.54,1010.8000
415.83,981.8000
416.12,980.8000
416.41,974.6000
416.70,1012.8000
417.00,1008.8000
417.29,1003.0000
417.58,1002.6000
417.87,998.6000
418.16,997.8000
418.45,1002.2000
418.74,988.0000
419.03,979.2000
419.32,1019.0000
419.61,1010.2000
419.90,1009.2000
420.19,1005.2000
420.48,1001.2000
420.77,978.8000
421.06,988.2000
421.35,995.6000
421.64,988.6000
421.93,979.8000
422.22,980.4000
422.51,1025.2000
422.80,998.4000
423.09,999.2000
423.38,1026.2000
423.67,1008.6000
423.96,983.6000
424.25,994.0000
424.54,998.2000
424.83,973.0000
425.12,997.2000
425.41,996.4000
425.70,1048.2000
425.99,1010.8000
426.28,1007.8000
426.57,1000.4000
426.86,996.4000
427.15,1005.0000
427.44,1020.8000
427.73,1015.8000
428.02,1000.0000
428.31,1006.2000
428.60,1020.6000
428.89,1014.0000
429.18,1004.0000
429.47,1013.4000
429.76,982.8000
430.05,997.2000
430.34,1015.8000
430.63,991.2000
430.92,1025.0000
431.21,1001.2000
431.50,989.8000
431.79,982.0000
432.08,989.0000
432.37,997.4000
432.66,1000.4000
432.94,986.8000
433.23,993.0000
433.52,1007.4000
433.81,997.4000
434.10,1058.4000
434.39,1001.2000
434.68,1022.8000
434.97,979.0000
435.26,999.4000
435.55,998.4000
435.84,999.0000
436.13,1004.2000
436.42,1005.8000
436.71,987.4000
436.99,983.0000
437.28,993.2000
437.57,1009.2000
437.86,984.4000
438.15,1003.2000
438.44,996.4000
438.73,1004.6000
439.02,1007.4000
439.31,1029.2000
439.60,997.4000
439.88,1003.6000
440.17,1000.4000
440.46,1014.4000
440.75,981.2000
441.04,980.8000
441.33,1021.2000
441.62,998.8000
441.91,977.4000
442.20,996.2000
442.48,1004.2000
442.77,990.4000
443.06,999.4000
443.35,993.8000
443.64,999.6000
443.93,992.0000
444.22,998.8000
444.50,1004.2000
444.79,1005.4000
445.08,1008.4000
445.37,1000.8000
445.66,995.4000
445.95,962.6000
446.24,983.6000
446.52,990.6000
446.81,1027.6000
447.10,981.4000
447.39,1009.4000
447.68,993.4000
447.97,969.8000
448.25,1010.4000
448.54,1008.0000
448.83,1006.8000
449.12,1019.6000
449.41,999.8000
449.69,1005.8000
449.98,993.0000
450.27,1000.4000
450.56,986.4000
450.85,993.2000
451.14,986.8000
451.42,994.2000
451.71,1000.4000
452.00,1004.6000
452.29,1011.2000
452.58,989.8000
452.86,996.6000
453.15,1001.2000
453.44,995.6000
453.73,1010.2000
454.01,986.4000
454.30,1048.6000
454.59,977.2000
454.88,989.2000
455.17,979.6000
455.45,989.0000
455.74,1026.0000
456.03,993.6000
456.32,992.0000
456.60,979.2000
456.89,1002.8000
457.18,984.4000
457.47,983.0000
457.76,993.6000
458.04,981.0000
458.33,994.0000
458.62,992.0000
458.91,963.2000
459.19,975.8000
459.48,989.4000
459.77,981.6000
460.06,997.8000
460.34,988.6000
460.63,995.2000
460.92,985.6000
461.20,982.6000
461.49,994.4000
461.78,984.4000
462.07,997.0000
462.35,1005.4000
462.64,996.8000
462.93,1009.0000
463.22,1002.6000
463.50,1007.0000
463.79,998.8000
464.08,1009.0000
464.36,993.6000
464.65,993.2000
464.94,993.0000
465.22,996.0000
465.51,999.2000
465.80,1028.4000
466.09,981.8000
466.37,1016.2000
466.66,1015.0000
466.95,986.6000
467.23,992.8000
467.52,1000.2000
467.81,1038.6000
468.09,985.4000
468.38,1004.6000
468.67,1019.6000
468.95,992.2000
469.24,987.0000
469.53,999.4000
469.81,1004.0000
470.10,990.0000
470.39,1010.2000
470.67,984.4000
470.96,1003.8000
471.25,981.8000
471.53,1017.4000
471.82,1005.4000
472.11,995.2000
472.39,982.0000
472.68,984.8000
472.97,976.4000
473.25,1003.0000
473.54,990.8000
473.82,983.8000
474.11,1002.2000
474.40,995.6000
474.68,1029.8000
474.97,1024.4000
475.26,985.4000
475.54,982.6000
475.83,1000.0000
476.11,1000.4000
476.40,1012.8000
476.69,1003.4000
476.97,1005.4000
477.26,1010.0000
477.55,1015.4000
477.83,984.8000
478.12,1000.2000
478.40,1000.8000
478.69,994.0000
478.98,991.2000
479.26,982.6000
479.55,999.6000
479.83,988.2000
480.12,987.6000
480.40,1003.0000
480.69,993.8000
480.98,991.8000
481.26,1010.8000
481.55,990.0000
481.83,996.2000
482.12,981.4000
482.41,986.8000
482.69,983.6000
482.98,1004.4000
483.26,1019.6000
483.55,993.0000
483.83,996.6000
484.12,993.2000
484.40,988.8000
484.69,980.8000
484.98,1005.4000
485.26,996.8000
485.55,998.0000
485.83,979.0000
486.12,998.0000
486.40,999.6000
486.69,996.4000
486.97,997.4000
487.26,998.0000
487.54,986.8000
487.83,997.2000
488.11,999.4000
488.40,1015.6000
488.68,1019.8000
488.97,999.2000
489.26,996.0000
489.54,1001.8000
489.83,990.8000
490.11,992.0000
490.40,1001.0000
490.68,1000.8000
490.97,971.2000
491.25,1009.2000
491.54,977.8000
491.82,1007.0000
492.11,993.8000
492.39,1020.2000
492.68,986.2000
492.96,1020.4000
493.24,980.0000
493.53,977.4000
493.81,1023.8000
494.10,978.0000
494.38,976.8000
494.67,995.4000
494.95,1015.2000
495.24,980.0000
495.52,1002.6000
495.81,1007.8000
496.09,1007.8000
496.38,973.8000
496.66,1013.4000
496.95,992.2000
497.23,991.4000
497.51,990.4000
497.80,989.6000
498.08,984.8000
498.37,988.8000
498.65,999.4000
498.94,1021.4000
499.22,992.0000
499.51,989.6000
499.79,990.6000
500.07,976.8000
500.36,1002.6000
500.64,1020.4000
500.93,994.6000
501.21,1010.6000
501.50,994.6000
501.78,994.6000
502.06,976.4000
502.35,981.6000
502.63,986.2000
502.92,993.4000
503.20,1013.8000
503.48,1034.6000
503.77,997.6000
504.05,1003.2000
504.34,974.4000
504.62,1006.2000
504.90,1010.0000
505.19,1015.2000
505.47,999.0000
505.76,990.8000
506.04,985.8000
506.32,1008.6000
506.61,986.4000
506.89,992.8000
507.17,993.2000
507.46,992.2000
507.74,1009.2000
508.03,992.6000
508.31,1002.4000
508.59,982.0000
508.88,983.0000
509.16,1006.8000
509.44,1008.4000
509.73,1001.0000
510.01,994.0000
510.29,1004.8000
510.58,979.6000
510.86,988.8000
511.14,1016.2000
511.43,996.6000
511.71,1003.0000
511.99,999.8000
512.28,988.4000
512.56,974.6000
512.84,990.2000
513.13,980.0000
513.41,986.0000
513.69,994.4000
513.98,983.0000
514.26,998.8000
514.54,993.2000
514.83,990.6000
515.11,997.0000
515.39,997.0000
515.68,1017.0000
515.96,990.6000
516.24,987.0000
516.53,978.6000
516.81,1022.4000
517.09,972.6000
517.37,977.6000
517.66,995.6000
517.94,982.4000
518.22,987.0000
518.51,974.4000
518.79,1012.6000
519.07,977.8000
519.35,992.6000
519.64,1003.2000
519.92,997.6000
520.20,992.0000
520.48,994.2000
520.77,992.6000
521.05,986.6000
521.33,977.6000
521.62,983.2000
521.90,1001.0000
522.18,991.0000
522.46,991.4000
522.75,988.6000
523.03,998.8000
523.31,973.8000
523.59,1022.4000
523.88,1004.2000
524.16,979.6000
524.44,1009.6000
524.72,1025.4000
525.00,1010.8000
525.29,1001.8000
525.57,988.8000
525.85,996.4000
526.13,988.4000
526.42,973.6000
526.70,996.8000
526.98,982.8000
527.26,985.2000
527.54,984.0000
527.83,994.8000
528.11,989.8000
528.39,1006.8000
528.67,1006.8000
528.95,997.8000
529.24,984.0000
529.52,1002.6000
529.80,1002.4000
530.08,1003.6000
530.36,980.0000
530.65,1015.0000
530.93,994.2000
531.21,988.6000
531.49,991.6000
531.77,1000.0000
532.05,993.8000
532.34,999.6000
532.62,988.6000
532.90,1008.6000
533.18,998.6000
533.46,992.2000
533.74,993.8000
534.03,995.4000
534.31,994.8000
534.59,987.4000
534.87,999.0000
535.15,997.4000
535.43,993.4000
535.71,992.8000
536.00,997.2000
536.28,982.2000
536.56,993.2000
536.84,991.2000
537.12,984.8000
537.40,998.4000
537.68,999.2000
537.97,1010.8000
538.25,986.2000
538.53,992.2000
538.81,1010.0000
539.09,989.0000
539.37,1000.4000
539.65,988.2000
539.93,995.4000
540.21,987.4000
540.50,967.2000
540.78,1002.6000
541.06,1001.0000
541.34,1006.4000
541.62,997.8000
541.90,1010.0000
542.18,980.0000
542.46,1001.0000
542.74,999.0000
543.02,981.8000
543.30,998.8000
543.58,999.4000
543.87,992.2000
544.15,988.2000
544.43,1020.8000
544.71,987.6000
544.99,1000.6000
545.27,995.4000
545.55,977.6000
545.83,987.2000
546.11,984.6000
546.39,1004.0000
546.67,1000.0000
546.95,990.2000
547.23,976.2000
547.51,982.2000
547.79,1009.8000
548.07,1001.2000
548.35,976.6000
548.63,980.2000
548.91,1010.8000
549.20,982.0000
549.48,1030.0000
549.76,984.6000
550.04,989.4000
550.32,999.2000
550.60,981.2000
550.88,968.8000
551.16,1008.2000
551.44,1003.6000
551.72,985.0000
552.00,983.6000
552.28,997.0000
552.56,1030.6000
552.84,1015.0000
553.12,1003.0000
553.40,992.8000
553.68,993.2000
553.96,987.0000
554.24,983.2000
554.52,1003.4000
554.80,987.8000
555.08,1008.2000
555.36,976.4000
555.64,1000.4000
555.92,986.0000
556.19,988.0000
556.47,983.8000
556.75,1001.2000
557.03,998.4000
557.31,1005.6000
557.59,1012.6000
557.87,989.6000
558.15,994.8000
558.43,984.8000
558.71,981.0000
558.99,982.0000
559.27,1002.2000
559.55,976.0000
559.83,974.0000
560.11,1000.2000
560.39,979.0000
560.67,989.2000
560.95,1007.0000
561.23,996.4000
561.50,993.6000
561.78,988.0000
562.06,991.6000
562.34,989.0000
562.62,996.4000
562.90,1001.8000
563.18,1003.0000
563.46,988.0000
563.74,995.6000
564.02,1024.6000
564.30,986.2000
564.57,994.4000
564.85,972.8000
565.13,1017.8000
565.41,978.0000
565.69,1003.6000
565.97,997.4000
566.25,983.4000
566.53,986.8000
566.81,1011.4000
567.08,1005.4000
567.36,978.0000
567.64,983.0000
567.92,1004.0000
568.20,984.6000
568.48,989.6000
568.76,991.0000
569.04,997.2000
569.31,1011.4000
569.59,1015.4000
569.87,996.8000
570.15,985.4000
570.43,999.6000
570.71,1007.0000
570.99,986.0000
571.26,992.6000
571.54,1001.8000
571.82,984.2000
572.10,987.4000
572.38,987.2000
572.66,1011.0000
572.93,990.6000
573.21,994.2000
573.49,992.6000
573.77,1005.0000
574.05,968.4000
574.32,974.0000
574.60,992.0000
574.88,992.8000
575.16,1026.4000
575.44,996.4000
575.71,994.6000
575.99,1057.4000
576.27,1006.6000
576.55,985.6000
576.83,1014.8000
577.10,999.6000
577.38,1001.2000
577.66,981.8000
577.94,1009.2000
578.22,979.4000
578.49,999.6000
578.77,998.2000
579.05,1011.4000
579.33,1000.4000
579.60,995.0000
579.88,995.4000
580.16,998.0000
580.44,1002.4000
580.72,984.8000
580.99,994.2000
581.27,994.2000
581.55,1005.0000
581.83,998.8000
582.10,1006.4000
582.38,986.4000
582.66,1014.4000
582.94,993.6000
583.21,1004.4000
583.49,1006.6000
583.77,991.6000
584.04,1006.6000
584.32,1009.6000
584.60,1004.8000
584.88,980.0000
585.15,1025.4000
585.43,980.6000
585.71,987.8000
585.98,974.2000
586.26,980.6000
586.54,982.4000
586.82,1010.0000
587.09,967.6000
587.37,1014.4000
587.65,980.8000
587.92,988.0000
588.20,1010.4000
588.48,1030.0000
588.75,986.2000
589.03,975.8000
589.31,1003.4000
589.59,989.6000
589.86,1014.2000
590.14,986.4000
590.42,1007.6000
590.69,992.6000
590.97,978.8000
591.25,977.6000
591.52,979.2000
591.80,1022.8000
592.08,1001.8000
592.35,995.8000
592.63,1002.4000
592.91,1004.8000
593.18,989.2000
593.46,991.8000
593.73,994.2000
594.01,999.8000
594.29,1026.2000
594.56,989.0000
594.84,998.8000
595.12,1008.4000
595.39,983.2000
595.67,997.2000
595.95,989.4000
596.22,995.2000
596.50,987.0000
596.77,987.8000
597.05,1017.0000
597.33,1008.6000
597.60,999.6000
597.88,992.6000
598.15,1014.0000
598.43,990.0000
598.71,1007.4000
598.98,1052.8000
599.26,1020.4000
599.53,992.4000
599.81,1002.0000
600.09,982.8000
600.36,970.2000
600.64,999.8000
600.91,983.2000
601.19,983.2000
601.47,987.6000
601.74,980.6000
602.02,990.4000
602.29,983.4000
602.57,990.8000
602.84,985.0000
603.12,989.6000
603.40,1002.2000
603.67,983.6000
603.95,1007.4000
604.22,1029.2000
604.50,988.6000
604.77,998.6000
605.05,992.2000
605.32,994.6000
605.60,1007.2000
605.87,979.0000
606.15,994.2000
606.42,992.4000
606.70,988.4000
606.98,995.8000
607.25,1001.6000
607.53,1005.2000
607.80,1002.0000
608.08,988.6000
608.35,995.6000
608.63,986.0000
608.90,1008.8000
609.18,1001.6000
609.45,985.2000
609.73,1005.2000
610.00,1024.8000
610.28,991.6000
610.55,984.4000
610.83,985.8000
611.10,991.6000
611.38,999.4000
611.65,1003.2000
611.93,989.8000
612.20,997.4000
612.48,962.6000
612.75,993.2000
613.03,988.6000
613.30,992.6000
613.57,996.6000
613.85,992.0000
614.12,1014.4000
614.40,977.4000
614.67,993.8000
614.95,996.8000
615.22,993.0000
615.50,981.4000
615.77,1012.2000
616.05,995.8000
616.32,995.8000
616.59,989.8000
616.87,988.0000
617.14,993.0000
617.42,994.8000
617.69,997.6000
617.97,989.2000
618.24,993.4000
618.51,973.2000
618.79,984.8000
619.06,981.8000
619.34,998.2000
619.61,986.0000
619.88,1016.8000
620.16,1000.4000
620.43,999.8000
620.71,982.8000
620.98,969.8000
621.26,986.2000
621.53,991.0000
621.80,992.8000
622.08,1000.6000
622.35,986.2000
622.62,995.0000
622.90,989.6000
623.17,987.8000
623.45,1003.2000
623.72,1008.2000
623.99,990.0000
624.27,996.0000
624.54,1014.6000
624.81,1025.4000
625.09,1003.8000
625.36,999.6000
625.64,1008.6000
625.91,1005.2000
626.18,991.6000
626.46,985.2000
626.73,1026.2000
627.00,1016.8000
627.28,984.6000
627.55,1002.0000
627.82,984.4000
628.10,1003.4000
628.37,983.8000
628.64,984.8000
628.92,981.6000
629.19,989.8000
629.46,983.6000
629.74,976.4000
630.01,990.8000
630.28,997.0000
630.56,986.2000
630.83,974.8000
631.10,996.4000
631.37,994.8000
631.65,982.6000
631.92,999.6000
632.19,998.6000
632.47,1013.6000
632.74,992.0000
633.01,1011.0000
633.28,981.6000
633.56,1003.6000
633.83,957.4000
634.10,981.8000
634.38,992.4000
634.65,999.0000
634.92,986.8000
635.19,1017.8000
635.47,996.2000
635.74,979.0000
636.01,964.4000
636.28,976.0000
636.56,985.2000
636.83,992.6000
637.10,1007.2000
637.37,1002.0000
637.65,986.4000
637.92,985.8000
638.19,975.2000
638.46,1009.2000
638.74,986.2000
639.01,1011.0000
639.28,969.0000
639.55,1005.8000
639.83,979.0000
640.10,985.6000
640.37,999.8000
640.64,988.6000
640.91,1002.4000
641.19,996.0000
641.46,994.6000
641.73,1018.8000
642.00,989.2000
642.28,1013.2000
642.55,985.2000
642.82,1004.8000
643.09,1019.8000
643.36,1004.6000
643.63,1000.8000
643.91,998.8000
644.18,1004.6000
644.45,1003.4000
644.72,1005.0000
644.99,986.0000
645.27,978.4000
645.54,992.2000
645.81,1037.4000
646.08,1009.2000
646.35,985.8000
646.62,983.8000
646.90,990.2000
647.17,1013.2000
647.44,994.6000
647.71,1008.2000
647.98,970.2000
648.25,996.8000
648.52,981.4000
648.80,985.4000
649.07,978.4000
649.34,983.6000
649.61,991.0000
649.88,1018.8000
650.15,1007.4000
650.42,986.0000
650.69,990.0000
650.97,1000.0000
651.24,1006.4000
651.51,996.6000
651.78,1017.2000
652.05,981.0000
652.32,988.2000
652.59,1023.8000
652.86,990.8000
653.13,976.8000
653.41,989.8000
653.68,1004.2000
653.95,1006.0000
654.22,1000.4000
654.49,1005.8000
654.76,971.0000
655.03,1009.4000
655.30,992.8000
655.57,987.0000
655.84,1007.4000
656.11,1014.0000
656.38,994.4000
656.66,992.6000
656.93,982.0000
657.20,995.4000
657.47,1016.0000
657.74,992.6000
658.01,1008.8000
658.28,975.0000
658.55,979.6000
658.82,996.0000
659.09,1006.0000
659.36,1003.8000
659.63,984.4000
659.90,1001.4000
660.17,1004.0000
660.44,987.4000
660.71,998.8000
660.98,998.0000
661.25,998.0000
661.52,991.4000
661.79,985.4000
662.06,992.6000
662.33,977.6000
662.60,985.8000
662.87,1004.6000
663.14,988.8000
663.41,990.8000
663.68,972.4000
663.95,982.0000
664.22,995.2000
664.49,1000.8000
664.76,975.8000
665.03,966.0000
665.30,990.0000
665.57,977.4000
665.84,982.0000
666.11,982.0000
666.38,984.8000
666.65,994.8000
666.92,1036.2000
667.19,991.2000
667.46,1004.8000
667.73,1010.4000
668.00,996.8000
668.27,998.8000
668.54,1012.2000
668.81,990.6000
669.08,999.4000
669.35,999.2000
669.62,1012.4000
669.89,995.8000
670.16,1007.8000
670.42,995.8000
670.69,996.8000
670.96,994.2000
671.23,997.4000
671.50,983.4000
671.77,979.4000
672.04,993.0000
672.31,992.4000
672.58,978.2000
672.85,977.6000
673.12,994.2000
673.39,995.4000
673.65,973.2000
673.92,1003.4000
674.19,992.2000
674.46,999.2000
674.73,996.0000
675.00,988.4000
675.27,994.4000
675.54,1005.6000
675.81,999.4000
676.07,998.8000
676.34,1022.8000
676.61,1012.0000
676.88,984.2000
677.15,992.2000
677.42,998.0000
677.69,987.8000
677.96,1001.8000
678.22,988.0000
678.49,986.6000
678.76,978.0000
679.03,986.8000
679.30,980.6000
679.57,977.0000
679.83,1002.6000
680.10,979.4000
680.37,1003.8000
680.64,1004.0000
680.91,990.8000
681.18,994.6000
681.44,990.6000
681.71,978.0000
681.98,1001.4000
682.25,1001.4000
682.52,993.6000
682.79,996.0000
683.05,1018.0000
683.32,993.0000
683.59,1011.4000
683.86,996.2000
684.13,1000.6000
684.39,989.8000
684.66,999.2000
684.93,1003.8000
685.20,994.6000
685.47,988.4000
685.73,1003.2000
686.00,990.2000
686.27,997.8000
686.54,988.4000
686.80,1014.4000
687.07,1007.8000
687.34,957.2000
687.61,1001.4000
687.88,984.6000
688.14,987.4000
688.41,1009.0000
688.68,970.4000
688.95,984.0000
689.21,986.0000
689.48,1020.8000
689.75,1001.2000
690.02,972.2000
690.28,982.2000
690.55,994.0000
690.82,971.8000
691.08,995.8000
691.35,987.8000
691.62,1003.6000
691.89,1000.2000
692.15,1002.4000
692.42,995.8000
692.69,971.6000
692.95,993.8000
693.22,992.2000
693.49,994.8000
693.76,995.8000
694.02,989.6000
694.29,992.2000
694.56,985.2000
694.82,1008.4000
695.09,980.8000
695.36,983.0000
695.62,982.2000
695.89,1012.4000
696.16,980.4000
696.43,1012.2000
696.69,1009.0000
696.96,1027.8000
697.23,991.6000
697.49,996.8000
697.76,1004.2000
698.03,982.4000
698.29,985.6000
698.56,992.4000
698.82,987.2000
699.09,1007.8000
699.36,998.6000
699.62,996.6000
699.89,1002.4000
700.16,969.2000
700.42,1007.2000
700.69,1013.0000
700.96,1001.2000
701.22,1012.4000
701.49,996.8000
701.75,1006.2000
702.02,991.6000
702.29,993.8000
702.55,987.2000
702.82,1002.4000
703.09,998.0000
703.35,1009.6000
703.62,1006.2000
703.88,1013.0000
704.15,975.8000
704.42,1005.2000
704.68,975.4000
704.95,1016.4000
705.21,984.0000
705.48,1002.4000
705.75,985.6000
706.01,999.2000
706.28,992.0000
706.54,975.2000
706.81,1007.0000
707.07,994.6000
707.34,983.2000
707.61,996.4000
707.87,1007.0000
708.14,993.2000
708.40,994.0000
708.67,1003.0000
708.93,998.0000
709.20,982.2000
709.46,994.8000
709.73,996.0000
709.99,1000.0000
710.26,988.8000
710.53,982.2000
710.79,959.2000
711.06,998.6000
711.32,1055.2000
711.59,1032.2000
711.85,1013.4000
712.12,1001.0000
712.38,979.8000
712.65,985.6000
712.91,989.6000
713.18,1011.4000
713.44,1006.8000
713.71,986.6000
713.97,1002.2000
714.24,985.8000
714.50,986.2000
714.77,994.6000
715.03,1003.2000
715.30,1003.6000
715.56,992.6000
715.83,981.2000
716.09,1002.2000
716.36,1032.8000
716.62,989.8000
716.89,972.8000
717.15,1013.2000
717.42,982.0000
717.68,973.0000
717.94,986.4000
718.21,979.8000
718.47,1006.4000
718.74,974.8000
719.00,1016.2000
719.27,1000.2000
719.53,984.8000
719.80,999.0000
720.06,999.2000
720.32,1032.2000
720.59,1006.2000
720.85,994.8000
721.12,977.2000
721.38,1007.8000
721.65,991.0000
721.91,998.4000
722.17,987.6000
722.44,1014.8000
722.70,999.2000
722.97,994.2000
723.23,1006.4000
723.49,980.8000
723.76,982.6000
724.02,1025.6000
724.29,1000.0000
724.55,992.2000
724.81,1005.4000
725.08,1014.0000
725.34,1012.2000
725.61,989.4000
725.87,998.4000
726.13,994.4000
726.40,998.6000
726.66,992.6000
726.92,991.6000
727.19,999.0000
727.45,979.6000
727.71,995.8000
727.98,991.6000
728.24,1014.4000
728.51,999.4000
728.77,985.2000
729.03,999.8000
729.30,995.8000
729.56,997.8000
729.82,1006.6000
730.09,996.6000
730.35,992.6000
730.61,1006.4000
730.88,987.4000
731.14,993.0000
731.40,1007.8000
731.67,991.4000
731.93,993.2000
732.19,1001.0000
732.45,1001.2000
732.72,983.8000
732.98,989.8000
733.24,980.8000
733.51,989.6000
733.77,990.0000
